#MeasParameter
&HWS=C:\RAYFLEX\PTS.hws.HWS
&Sample=
&Material=
&Operator=USER_1
&Anode=Cr	&Filter=V	&kV=40	&mA=40
&Detector=ScintCount

#TextureParameter
&H=1	&K=1	&L=1
&Mode=REFL
&Raster=CIRCULAR
&AlphaStart=0.000	&AlphaEnd=70.000	&AlphaStep=3.500
&BetaStart=0.000	&BetaEnd=360.000	&BetaStep=3.600
&2Theta=57.000	&Window=0.000	&Step=0.000
&Time=10.0	&Counts=0
&BGLeft=55.000	&BGRight=0.000	&BGTime=10.0	&BGCounts=0

#Values
&NoValues=2121
   0.000	   0.000	    74.900	    37.100
   0.000	   3.600	    75.700	    37.100
   0.000	   7.200	    71.700	    37.100
   0.000	  10.800	    74.700	    37.100
   0.000	  14.400	    77.300	    37.100
   0.000	  18.000	    77.100	    37.100
   0.000	  21.600	    71.700	    37.100
   0.000	  25.200	    75.300	    37.100
   0.000	  28.800	    74.800	    37.100
   0.000	  32.400	    70.300	    37.100
   0.000	  36.000	    69.300	    37.100
   0.000	  39.600	    76.500	    37.100
   0.000	  43.200	    69.100	    37.100
   0.000	  46.800	    77.000	    37.100
   0.000	  50.400	    76.000	    37.100
   0.000	  54.000	    68.600	    37.100
   0.000	  57.600	    77.600	    37.100
   0.000	  61.200	    72.700	    37.100
   0.000	  64.800	    74.700	    37.100
   0.000	  68.400	    73.900	    37.100
   0.000	  72.000	    75.100	    37.100
   0.000	  75.600	    68.500	    37.100
   0.000	  79.200	    71.900	    37.100
   0.000	  82.800	    73.900	    37.100
   0.000	  86.400	    70.200	    37.100
   0.000	  90.000	    68.400	    37.100
   0.000	  93.600	    63.000	    37.100
   0.000	  97.200	    66.300	    37.100
   0.000	 100.800	    72.000	    37.100
   0.000	 104.400	    71.500	    37.100
   0.000	 108.000	    68.300	    37.100
   0.000	 111.600	    66.900	    37.100
   0.000	 115.200	    67.700	    37.100
   0.000	 118.800	    62.600	    37.100
   0.000	 122.400	    62.900	    37.100
   0.000	 126.000	    68.300	    37.100
   0.000	 129.600	    64.500	    37.100
   0.000	 133.200	    67.300	    37.100
   0.000	 136.800	    64.300	    37.100
   0.000	 140.400	    61.900	    37.100
   0.000	 144.000	    66.700	    37.100
   0.000	 147.600	    61.300	    37.100
   0.000	 151.200	    66.000	    37.100
   0.000	 154.800	    64.600	    37.100
   0.000	 158.400	    64.700	    37.100
   0.000	 162.000	    58.800	    37.100
   0.000	 165.600	    62.000	    37.100
   0.000	 169.200	    62.700	    37.100
   0.000	 172.800	    65.400	    37.100
   0.000	 176.400	    67.900	    37.100
   0.000	 180.000	    60.700	    37.100
   0.000	 183.600	    60.100	    37.100
   0.000	 187.200	    58.300	    37.100
   0.000	 190.800	    66.400	    37.100
   0.000	 194.400	    62.900	    37.100
   0.000	 198.000	    59.100	    37.100
   0.000	 201.600	    60.800	    37.100
   0.000	 205.200	    59.200	    37.100
   0.000	 208.800	    60.600	    37.100
   0.000	 212.400	    62.700	    37.100
   0.000	 216.000	    59.300	    37.100
   0.000	 219.600	    58.800	    37.100
   0.000	 223.200	    66.000	    37.100
   0.000	 226.800	    66.900	    37.100
   0.000	 230.400	    62.100	    37.100
   0.000	 234.000	    63.400	    37.100
   0.000	 237.600	    63.100	    37.100
   0.000	 241.200	    64.800	    37.100
   0.000	 244.800	    61.500	    37.100
   0.000	 248.400	    63.900	    37.100
   0.000	 252.000	    67.600	    37.100
   0.000	 255.600	    66.200	    37.100
   0.000	 259.200	    68.000	    37.100
   0.000	 262.800	    65.800	    37.100
   0.000	 266.400	    69.400	    37.100
   0.000	 270.000	    62.200	    37.100
   0.000	 273.600	    65.200	    37.100
   0.000	 277.200	    67.600	    37.100
   0.000	 280.800	    68.300	    37.100
   0.000	 284.400	    68.700	    37.100
   0.000	 288.000	    71.700	    37.100
   0.000	 291.600	    66.300	    37.100
   0.000	 295.200	    67.700	    37.100
   0.000	 298.800	    75.500	    37.100
   0.000	 302.400	    73.800	    37.100
   0.000	 306.000	    72.100	    37.100
   0.000	 309.600	    72.900	    37.100
   0.000	 313.200	    71.100	    37.100
   0.000	 316.800	    76.000	    37.100
   0.000	 320.400	    70.300	    37.100
   0.000	 324.000	    76.100	    37.100
   0.000	 327.600	    66.200	    37.100
   0.000	 331.200	    71.900	    37.100
   0.000	 334.800	    70.400	    37.100
   0.000	 338.400	    68.400	    37.100
   0.000	 342.000	    73.600	    37.100
   0.000	 345.600	    68.600	    37.100
   0.000	 349.200	    74.700	    37.100
   0.000	 352.800	    78.300	    37.100
   0.000	 356.400	    78.200	    37.100
   0.000	 360.000	    76.700	    37.100
   3.500	   0.000	    76.200	    36.600
   3.500	   3.600	    80.300	    36.600
   3.500	   7.200	    72.300	    36.600
   3.500	  10.800	    74.700	    36.600
   3.500	  14.400	    77.000	    36.600
   3.500	  18.000	    73.600	    36.600
   3.500	  21.600	    71.700	    36.600
   3.500	  25.200	    67.500	    36.600
   3.500	  28.800	    70.800	    36.600
   3.500	  32.400	    74.400	    36.600
   3.500	  36.000	    69.300	    36.600
   3.500	  39.600	    66.900	    36.600
   3.500	  43.200	    67.900	    36.600
   3.500	  46.800	    75.900	    36.600
   3.500	  50.400	    73.500	    36.600
   3.500	  54.000	    72.100	    36.600
   3.500	  57.600	    70.100	    36.600
   3.500	  61.200	    75.700	    36.600
   3.500	  64.800	    67.600	    36.600
   3.500	  68.400	    76.500	    36.600
   3.500	  72.000	    72.900	    36.600
   3.500	  75.600	    70.600	    36.600
   3.500	  79.200	    71.100	    36.600
   3.500	  82.800	    67.400	    36.600
   3.500	  86.400	    66.700	    36.600
   3.500	  90.000	    62.400	    36.600
   3.500	  93.600	    64.300	    36.600
   3.500	  97.200	    71.000	    36.600
   3.500	 100.800	    62.700	    36.600
   3.500	 104.400	    62.100	    36.600
   3.500	 108.000	    67.700	    36.600
   3.500	 111.600	    64.800	    36.600
   3.500	 115.200	    65.500	    36.600
   3.500	 118.800	    63.400	    36.600
   3.500	 122.400	    64.700	    36.600
   3.500	 126.000	    61.400	    36.600
   3.500	 129.600	    64.400	    36.600
   3.500	 133.200	    62.400	    36.600
   3.500	 136.800	    63.000	    36.600
   3.500	 140.400	    60.500	    36.600
   3.500	 144.000	    58.700	    36.600
   3.500	 147.600	    65.500	    36.600
   3.500	 151.200	    64.500	    36.600
   3.500	 154.800	    61.200	    36.600
   3.500	 158.400	    61.400	    36.600
   3.500	 162.000	    60.400	    36.600
   3.500	 165.600	    60.100	    36.600
   3.500	 169.200	    60.600	    36.600
   3.500	 172.800	    63.900	    36.600
   3.500	 176.400	    63.100	    36.600
   3.500	 180.000	    59.900	    36.600
   3.500	 183.600	    60.600	    36.600
   3.500	 187.200	    64.500	    36.600
   3.500	 190.800	    55.900	    36.600
   3.500	 194.400	    60.400	    36.600
   3.500	 198.000	    57.900	    36.600
   3.500	 201.600	    60.000	    36.600
   3.500	 205.200	    59.000	    36.600
   3.500	 208.800	    63.200	    36.600
   3.500	 212.400	    62.100	    36.600
   3.500	 216.000	    59.400	    36.600
   3.500	 219.600	    61.100	    36.600
   3.500	 223.200	    62.100	    36.600
   3.500	 226.800	    61.300	    36.600
   3.500	 230.400	    63.500	    36.600
   3.500	 234.000	    64.600	    36.600
   3.500	 237.600	    60.300	    36.600
   3.500	 241.200	    64.900	    36.600
   3.500	 244.800	    62.300	    36.600
   3.500	 248.400	    63.400	    36.600
   3.500	 252.000	    62.100	    36.600
   3.500	 255.600	    63.800	    36.600
   3.500	 259.200	    67.000	    36.600
   3.500	 262.800	    71.300	    36.600
   3.500	 266.400	    69.300	    36.600
   3.500	 270.000	    67.300	    36.600
   3.500	 273.600	    65.600	    36.600
   3.500	 277.200	    65.400	    36.600
   3.500	 280.800	    70.100	    36.600
   3.500	 284.400	    67.800	    36.600
   3.500	 288.000	    66.300	    36.600
   3.500	 291.600	    70.200	    36.600
   3.500	 295.200	    67.400	    36.600
   3.500	 298.800	    69.400	    36.600
   3.500	 302.400	    66.300	    36.600
   3.500	 306.000	    70.200	    36.600
   3.500	 309.600	    66.500	    36.600
   3.500	 313.200	    68.500	    36.600
   3.500	 316.800	    71.800	    36.600
   3.500	 320.400	    74.000	    36.600
   3.500	 324.000	    74.100	    36.600
   3.500	 327.600	    70.000	    36.600
   3.500	 331.200	    74.400	    36.600
   3.500	 334.800	    70.000	    36.600
   3.500	 338.400	    69.600	    36.600
   3.500	 342.000	    74.900	    36.600
   3.500	 345.600	    74.400	    36.600
   3.500	 349.200	    72.200	    36.600
   3.500	 352.800	    71.500	    36.600
   3.500	 356.400	    71.500	    36.600
   3.500	 360.000	    77.200	    36.600
   7.000	   0.000	    69.900	    38.900
   7.000	   3.600	    71.400	    38.900
   7.000	   7.200	    67.400	    38.900
   7.000	  10.800	    67.800	    38.900
   7.000	  14.400	    69.400	    38.900
   7.000	  18.000	    71.900	    38.900
   7.000	  21.600	    71.800	    38.900
   7.000	  25.200	    63.600	    38.900
   7.000	  28.800	    68.100	    38.900
   7.000	  32.400	    68.300	    38.900
   7.000	  36.000	    70.700	    38.900
   7.000	  39.600	    67.400	    38.900
   7.000	  43.200	    67.400	    38.900
   7.000	  46.800	    60.200	    38.900
   7.000	  50.400	    69.600	    38.900
   7.000	  54.000	    65.200	    38.900
   7.000	  57.600	    67.400	    38.900
   7.000	  61.200	    60.400	    38.900
   7.000	  64.800	    64.400	    38.900
   7.000	  68.400	    64.500	    38.900
   7.000	  72.000	    63.300	    38.900
   7.000	  75.600	    67.000	    38.900
   7.000	  79.200	    64.000	    38.900
   7.000	  82.800	    64.600	    38.900
   7.000	  86.400	    65.200	    38.900
   7.000	  90.000	    63.800	    38.900
   7.000	  93.600	    58.500	    38.900
   7.000	  97.200	    60.800	    38.900
   7.000	 100.800	    64.200	    38.900
   7.000	 104.400	    62.400	    38.900
   7.000	 108.000	    60.400	    38.900
   7.000	 111.600	    59.700	    38.900
   7.000	 115.200	    55.800	    38.900
   7.000	 118.800	    59.400	    38.900
   7.000	 122.400	    55.600	    38.900
   7.000	 126.000	    60.600	    38.900
   7.000	 129.600	    60.100	    38.900
   7.000	 133.200	    56.600	    38.900
   7.000	 136.800	    58.500	    38.900
   7.000	 140.400	    55.700	    38.900
   7.000	 144.000	    56.300	    38.900
   7.000	 147.600	    57.400	    38.900
   7.000	 151.200	    56.700	    38.900
   7.000	 154.800	    62.400	    38.900
   7.000	 158.400	    56.600	    38.900
   7.000	 162.000	    58.100	    38.900
   7.000	 165.600	    51.300	    38.900
   7.000	 169.200	    54.600	    38.900
   7.000	 172.800	    53.600	    38.900
   7.000	 176.400	    58.300	    38.900
   7.000	 180.000	    55.800	    38.900
   7.000	 183.600	    53.800	    38.900
   7.000	 187.200	    51.500	    38.900
   7.000	 190.800	    55.300	    38.900
   7.000	 194.400	    54.300	    38.900
   7.000	 198.000	    57.800	    38.900
   7.000	 201.600	    56.200	    38.900
   7.000	 205.200	    55.000	    38.900
   7.000	 208.800	    55.300	    38.900
   7.000	 212.400	    53.500	    38.900
   7.000	 216.000	    55.000	    38.900
   7.000	 219.600	    57.500	    38.900
   7.000	 223.200	    54.000	    38.900
   7.000	 226.800	    58.000	    38.900
   7.000	 230.400	    57.800	    38.900
   7.000	 234.000	    61.500	    38.900
   7.000	 237.600	    56.800	    38.900
   7.000	 241.200	    60.200	    38.900
   7.000	 244.800	    60.700	    38.900
   7.000	 248.400	    62.000	    38.900
   7.000	 252.000	    61.600	    38.900
   7.000	 255.600	    62.500	    38.900
   7.000	 259.200	    67.100	    38.900
   7.000	 262.800	    62.800	    38.900
   7.000	 266.400	    59.800	    38.900
   7.000	 270.000	    64.100	    38.900
   7.000	 273.600	    66.000	    38.900
   7.000	 277.200	    62.400	    38.900
   7.000	 280.800	    57.000	    38.900
   7.000	 284.400	    68.300	    38.900
   7.000	 288.000	    68.000	    38.900
   7.000	 291.600	    69.800	    38.900
   7.000	 295.200	    63.600	    38.900
   7.000	 298.800	    71.600	    38.900
   7.000	 302.400	    63.800	    38.900
   7.000	 306.000	    68.300	    38.900
   7.000	 309.600	    61.800	    38.900
   7.000	 313.200	    63.100	    38.900
   7.000	 316.800	    67.200	    38.900
   7.000	 320.400	    67.200	    38.900
   7.000	 324.000	    62.700	    38.900
   7.000	 327.600	    69.900	    38.900
   7.000	 331.200	    64.800	    38.900
   7.000	 334.800	    65.100	    38.900
   7.000	 338.400	    62.300	    38.900
   7.000	 342.000	    67.500	    38.900
   7.000	 345.600	    67.200	    38.900
   7.000	 349.200	    67.900	    38.900
   7.000	 352.800	    70.000	    38.900
   7.000	 356.400	    71.300	    38.900
   7.000	 360.000	    70.500	    38.900
  10.500	   0.000	    61.200	    35.400
  10.500	   3.600	    66.100	    35.400
  10.500	   7.200	    68.300	    35.400
  10.500	  10.800	    66.600	    35.400
  10.500	  14.400	    63.700	    35.400
  10.500	  18.000	    63.300	    35.400
  10.500	  21.600	    65.500	    35.400
  10.500	  25.200	    69.200	    35.400
  10.500	  28.800	    65.400	    35.400
  10.500	  32.400	    61.400	    35.400
  10.500	  36.000	    60.700	    35.400
  10.500	  39.600	    66.900	    35.400
  10.500	  43.200	    62.100	    35.400
  10.500	  46.800	    63.600	    35.400
  10.500	  50.400	    66.300	    35.400
  10.500	  54.000	    60.300	    35.400
  10.500	  57.600	    64.500	    35.400
  10.500	  61.200	    64.600	    35.400
  10.500	  64.800	    62.100	    35.400
  10.500	  68.400	    59.000	    35.400
  10.500	  72.000	    62.600	    35.400
  10.500	  75.600	    61.500	    35.400
  10.500	  79.200	    59.600	    35.400
  10.500	  82.800	    57.200	    35.400
  10.500	  86.400	    60.300	    35.400
  10.500	  90.000	    61.900	    35.400
  10.500	  93.600	    63.100	    35.400
  10.500	  97.200	    59.100	    35.400
  10.500	 100.800	    58.700	    35.400
  10.500	 104.400	    57.500	    35.400
  10.500	 108.000	    59.300	    35.400
  10.500	 111.600	    60.800	    35.400
  10.500	 115.200	    58.000	    35.400
  10.500	 118.800	    56.300	    35.400
  10.500	 122.400	    52.700	    35.400
  10.500	 126.000	    54.200	    35.400
  10.500	 129.600	    55.900	    35.400
  10.500	 133.200	    51.700	    35.400
  10.500	 136.800	    57.900	    35.400
  10.500	 140.400	    53.500	    35.400
  10.500	 144.000	    53.700	    35.400
  10.500	 147.600	    53.300	    35.400
  10.500	 151.200	    50.700	    35.400
  10.500	 154.800	    56.500	    35.400
  10.500	 158.400	    50.700	    35.400
  10.500	 162.000	    51.700	    35.400
  10.500	 165.600	    58.700	    35.400
  10.500	 169.200	    57.900	    35.400
  10.500	 172.800	    53.400	    35.400
  10.500	 176.400	    55.200	    35.400
  10.500	 180.000	    56.800	    35.400
  10.500	 183.600	    52.400	    35.400
  10.500	 187.200	    51.200	    35.400
  10.500	 190.800	    55.600	    35.400
  10.500	 194.400	    51.000	    35.400
  10.500	 198.000	    55.900	    35.400
  10.500	 201.600	    56.000	    35.400
  10.500	 205.200	    52.800	    35.400
  10.500	 208.800	    55.300	    35.400
  10.500	 212.400	    53.400	    35.400
  10.500	 216.000	    57.200	    35.400
  10.500	 219.600	    55.600	    35.400
  10.500	 223.200	    53.000	    35.400
  10.500	 226.800	    55.700	    35.400
  10.500	 230.400	    53.700	    35.400
  10.500	 234.000	    56.600	    35.400
  10.500	 237.600	    51.000	    35.400
  10.500	 241.200	    57.600	    35.400
  10.500	 244.800	    58.400	    35.400
  10.500	 248.400	    60.800	    35.400
  10.500	 252.000	    59.700	    35.400
  10.500	 255.600	    55.300	    35.400
  10.500	 259.200	    63.200	    35.400
  10.500	 262.800	    59.400	    35.400
  10.500	 266.400	    61.200	    35.400
  10.500	 270.000	    62.400	    35.400
  10.500	 273.600	    60.000	    35.400
  10.500	 277.200	    60.100	    35.400
  10.500	 280.800	    58.700	    35.400
  10.500	 284.400	    61.300	    35.400
  10.500	 288.000	    61.500	    35.400
  10.500	 291.600	    63.800	    35.400
  10.500	 295.200	    60.100	    35.400
  10.500	 298.800	    63.600	    35.400
  10.500	 302.400	    61.800	    35.400
  10.500	 306.000	    59.000	    35.400
  10.500	 309.600	    63.400	    35.400
  10.500	 313.200	    66.000	    35.400
  10.500	 316.800	    63.100	    35.400
  10.500	 320.400	    67.300	    35.400
  10.500	 324.000	    65.800	    35.400
  10.500	 327.600	    63.800	    35.400
  10.500	 331.200	    64.800	    35.400
  10.500	 334.800	    66.200	    35.400
  10.500	 338.400	    64.700	    35.400
  10.500	 342.000	    60.100	    35.400
  10.500	 345.600	    66.600	    35.400
  10.500	 349.200	    67.000	    35.400
  10.500	 352.800	    65.300	    35.400
  10.500	 356.400	    59.800	    35.400
  10.500	 360.000	    60.400	    35.400
  14.000	   0.000	    63.600	    38.100
  14.000	   3.600	    62.400	    38.100
  14.000	   7.200	    51.900	    38.100
  14.000	  10.800	    62.000	    38.100
  14.000	  14.400	    65.100	    38.100
  14.000	  18.000	    61.500	    38.100
  14.000	  21.600	    64.800	    38.100
  14.000	  25.200	    62.200	    38.100
  14.000	  28.800	    64.400	    38.100
  14.000	  32.400	    62.600	    38.100
  14.000	  36.000	    60.100	    38.100
  14.000	  39.600	    63.800	    38.100
  14.000	  43.200	    63.000	    38.100
  14.000	  46.800	    58.400	    38.100
  14.000	  50.400	    66.000	    38.100
  14.000	  54.000	    60.500	    38.100
  14.000	  57.600	    63.500	    38.100
  14.000	  61.200	    60.600	    38.100
  14.000	  64.800	    60.200	    38.100
  14.000	  68.400	    58.000	    38.100
  14.000	  72.000	    59.600	    38.100
  14.000	  75.600	    60.400	    38.100
  14.000	  79.200	    59.900	    38.100
  14.000	  82.800	    60.000	    38.100
  14.000	  86.400	    61.900	    38.100
  14.000	  90.000	    57.700	    38.100
  14.000	  93.600	    59.500	    38.100
  14.000	  97.200	    55.700	    38.100
  14.000	 100.800	    55.400	    38.100
  14.000	 104.400	    55.800	    38.100
  14.000	 108.000	    58.200	    38.100
  14.000	 111.600	    61.300	    38.100
  14.000	 115.200	    54.500	    38.100
  14.000	 118.800	    58.200	    38.100
  14.000	 122.400	    52.900	    38.100
  14.000	 126.000	    59.800	    38.100
  14.000	 129.600	    55.000	    38.100
  14.000	 133.200	    55.100	    38.100
  14.000	 136.800	    52.600	    38.100
  14.000	 140.400	    50.300	    38.100
  14.000	 144.000	    53.500	    38.100
  14.000	 147.600	    52.200	    38.100
  14.000	 151.200	    49.000	    38.100
  14.000	 154.800	    53.900	    38.100
  14.000	 158.400	    49.600	    38.100
  14.000	 162.000	    49.200	    38.100
  14.000	 165.600	    47.700	    38.100
  14.000	 169.200	    51.600	    38.100
  14.000	 172.800	    51.000	    38.100
  14.000	 176.400	    50.400	    38.100
  14.000	 180.000	    50.800	    38.100
  14.000	 183.600	    52.200	    38.100
  14.000	 187.200	    51.600	    38.100
  14.000	 190.800	    49.100	    38.100
  14.000	 194.400	    52.300	    38.100
  14.000	 198.000	    53.300	    38.100
  14.000	 201.600	    51.300	    38.100
  14.000	 205.200	    53.200	    38.100
  14.000	 208.800	    49.600	    38.100
  14.000	 212.400	    53.500	    38.100
  14.000	 216.000	    54.500	    38.100
  14.000	 219.600	    52.600	    38.100
  14.000	 223.200	    54.700	    38.100
  14.000	 226.800	    52.800	    38.100
  14.000	 230.400	    53.900	    38.100
  14.000	 234.000	    53.200	    38.100
  14.000	 237.600	    52.600	    38.100
  14.000	 241.200	    55.000	    38.100
  14.000	 244.800	    56.900	    38.100
  14.000	 248.400	    58.400	    38.100
  14.000	 252.000	    56.500	    38.100
  14.000	 255.600	    59.000	    38.100
  14.000	 259.200	    59.200	    38.100
  14.000	 262.800	    56.800	    38.100
  14.000	 266.400	    61.700	    38.100
  14.000	 270.000	    56.400	    38.100
  14.000	 273.600	    61.100	    38.100
  14.000	 277.200	    62.600	    38.100
  14.000	 280.800	    61.200	    38.100
  14.000	 284.400	    56.500	    38.100
  14.000	 288.000	    64.400	    38.100
  14.000	 291.600	    61.600	    38.100
  14.000	 295.200	    63.400	    38.100
  14.000	 298.800	    63.400	    38.100
  14.000	 302.400	    66.300	    38.100
  14.000	 306.000	    58.100	    38.100
  14.000	 309.600	    63.500	    38.100
  14.000	 313.200	    64.800	    38.100
  14.000	 316.800	    64.400	    38.100
  14.000	 320.400	    63.100	    38.100
  14.000	 324.000	    62.700	    38.100
  14.000	 327.600	    64.600	    38.100
  14.000	 331.200	    62.500	    38.100
  14.000	 334.800	    66.200	    38.100
  14.000	 338.400	    61.900	    38.100
  14.000	 342.000	    61.000	    38.100
  14.000	 345.600	    64.600	    38.100
  14.000	 349.200	    63.300	    38.100
  14.000	 352.800	    59.500	    38.100
  14.000	 356.400	    60.000	    38.100
  14.000	 360.000	    64.300	    38.100
  17.500	   0.000	    58.200	    37.400
  17.500	   3.600	    62.700	    37.400
  17.500	   7.200	    59.700	    37.400
  17.500	  10.800	    63.500	    37.400
  17.500	  14.400	    62.500	    37.400
  17.500	  18.000	    60.300	    37.400
  17.500	  21.600	    64.100	    37.400
  17.500	  25.200	    64.800	    37.400
  17.500	  28.800	    63.000	    37.400
  17.500	  32.400	    60.200	    37.400
  17.500	  36.000	    62.500	    37.400
  17.500	  39.600	    61.500	    37.400
  17.500	  43.200	    61.900	    37.400
  17.500	  46.800	    61.400	    37.400
  17.500	  50.400	    62.500	    37.400
  17.500	  54.000	    59.300	    37.400
  17.500	  57.600	    56.500	    37.400
  17.500	  61.200	    60.100	    37.400
  17.500	  64.800	    61.800	    37.400
  17.500	  68.400	    59.900	    37.400
  17.500	  72.000	    61.000	    37.400
  17.500	  75.600	    61.100	    37.400
  17.500	  79.200	    52.400	    37.400
  17.500	  82.800	    59.300	    37.400
  17.500	  86.400	    60.600	    37.400
  17.500	  90.000	    55.700	    37.400
  17.500	  93.600	    59.900	    37.400
  17.500	  97.200	    56.600	    37.400
  17.500	 100.800	    56.500	    37.400
  17.500	 104.400	    53.200	    37.400
  17.500	 108.000	    57.600	    37.400
  17.500	 111.600	    55.300	    37.400
  17.500	 115.200	    53.600	    37.400
  17.500	 118.800	    51.100	    37.400
  17.500	 122.400	    58.300	    37.400
  17.500	 126.000	    52.000	    37.400
  17.500	 129.600	    51.600	    37.400
  17.500	 133.200	    51.200	    37.400
  17.500	 136.800	    50.200	    37.400
  17.500	 140.400	    53.300	    37.400
  17.500	 144.000	    51.900	    37.400
  17.500	 147.600	    51.400	    37.400
  17.500	 151.200	    49.000	    37.400
  17.500	 154.800	    49.500	    37.400
  17.500	 158.400	    49.400	    37.400
  17.500	 162.000	    49.800	    37.400
  17.500	 165.600	    50.900	    37.400
  17.500	 169.200	    49.100	    37.400
  17.500	 172.800	    52.300	    37.400
  17.500	 176.400	    51.400	    37.400
  17.500	 180.000	    52.600	    37.400
  17.500	 183.600	    48.600	    37.400
  17.500	 187.200	    47.000	    37.400
  17.500	 190.800	    50.800	    37.400
  17.500	 194.400	    51.500	    37.400
  17.500	 198.000	    47.800	    37.400
  17.500	 201.600	    51.500	    37.400
  17.500	 205.200	    51.100	    37.400
  17.500	 208.800	    52.000	    37.400
  17.500	 212.400	    51.700	    37.400
  17.500	 216.000	    50.100	    37.400
  17.500	 219.600	    52.900	    37.400
  17.500	 223.200	    50.600	    37.400
  17.500	 226.800	    50.900	    37.400
  17.500	 230.400	    57.000	    37.400
  17.500	 234.000	    50.700	    37.400
  17.500	 237.600	    54.800	    37.400
  17.500	 241.200	    55.300	    37.400
  17.500	 244.800	    54.300	    37.400
  17.500	 248.400	    56.500	    37.400
  17.500	 252.000	    57.500	    37.400
  17.500	 255.600	    57.300	    37.400
  17.500	 259.200	    54.500	    37.400
  17.500	 262.800	    56.400	    37.400
  17.500	 266.400	    59.800	    37.400
  17.500	 270.000	    61.500	    37.400
  17.500	 273.600	    60.700	    37.400
  17.500	 277.200	    56.700	    37.400
  17.500	 280.800	    61.900	    37.400
  17.500	 284.400	    57.500	    37.400
  17.500	 288.000	    57.900	    37.400
  17.500	 291.600	    59.800	    37.400
  17.500	 295.200	    60.500	    37.400
  17.500	 298.800	    58.400	    37.400
  17.500	 302.400	    59.300	    37.400
  17.500	 306.000	    57.900	    37.400
  17.500	 309.600	    57.900	    37.400
  17.500	 313.200	    58.500	    37.400
  17.500	 316.800	    62.600	    37.400
  17.500	 320.400	    58.400	    37.400
  17.500	 324.000	    56.200	    37.400
  17.500	 327.600	    59.200	    37.400
  17.500	 331.200	    60.000	    37.400
  17.500	 334.800	    59.100	    37.400
  17.500	 338.400	    57.600	    37.400
  17.500	 342.000	    56.700	    37.400
  17.500	 345.600	    61.400	    37.400
  17.500	 349.200	    56.300	    37.400
  17.500	 352.800	    57.400	    37.400
  17.500	 356.400	    59.700	    37.400
  17.500	 360.000	    58.000	    37.400
  21.000	   0.000	    58.000	    34.300
  21.000	   3.600	    63.200	    34.300
  21.000	   7.200	    64.300	    34.300
  21.000	  10.800	    57.700	    34.300
  21.000	  14.400	    60.300	    34.300
  21.000	  18.000	    57.900	    34.300
  21.000	  21.600	    61.300	    34.300
  21.000	  25.200	    57.600	    34.300
  21.000	  28.800	    65.000	    34.300
  21.000	  32.400	    63.600	    34.300
  21.000	  36.000	    60.000	    34.300
  21.000	  39.600	    60.200	    34.300
  21.000	  43.200	    62.300	    34.300
  21.000	  46.800	    59.200	    34.300
  21.000	  50.400	    62.500	    34.300
  21.000	  54.000	    63.100	    34.300
  21.000	  57.600	    60.200	    34.300
  21.000	  61.200	    59.600	    34.300
  21.000	  64.800	    60.600	    34.300
  21.000	  68.400	    62.400	    34.300
  21.000	  72.000	    57.000	    34.300
  21.000	  75.600	    61.400	    34.300
  21.000	  79.200	    58.500	    34.300
  21.000	  82.800	    58.900	    34.300
  21.000	  86.400	    62.300	    34.300
  21.000	  90.000	    59.400	    34.300
  21.000	  93.600	    60.000	    34.300
  21.000	  97.200	    58.600	    34.300
  21.000	 100.800	    52.600	    34.300
  21.000	 104.400	    58.200	    34.300
  21.000	 108.000	    54.600	    34.300
  21.000	 111.600	    56.500	    34.300
  21.000	 115.200	    57.600	    34.300
  21.000	 118.800	    53.700	    34.300
  21.000	 122.400	    52.200	    34.300
  21.000	 126.000	    54.100	    34.300
  21.000	 129.600	    55.200	    34.300
  21.000	 133.200	    53.300	    34.300
  21.000	 136.800	    52.400	    34.300
  21.000	 140.400	    50.400	    34.300
  21.000	 144.000	    46.100	    34.300
  21.000	 147.600	    52.800	    34.300
  21.000	 151.200	    53.400	    34.300
  21.000	 154.800	    52.400	    34.300
  21.000	 158.400	    50.200	    34.300
  21.000	 162.000	    48.000	    34.300
  21.000	 165.600	    51.600	    34.300
  21.000	 169.200	    49.700	    34.300
  21.000	 172.800	    53.900	    34.300
  21.000	 176.400	    54.700	    34.300
  21.000	 180.000	    50.200	    34.300
  21.000	 183.600	    48.900	    34.300
  21.000	 187.200	    50.600	    34.300
  21.000	 190.800	    53.300	    34.300
  21.000	 194.400	    53.400	    34.300
  21.000	 198.000	    51.100	    34.300
  21.000	 201.600	    49.600	    34.300
  21.000	 205.200	    46.700	    34.300
  21.000	 208.800	    48.500	    34.300
  21.000	 212.400	    52.000	    34.300
  21.000	 216.000	    51.600	    34.300
  21.000	 219.600	    58.700	    34.300
  21.000	 223.200	    51.600	    34.300
  21.000	 226.800	    53.100	    34.300
  21.000	 230.400	    52.600	    34.300
  21.000	 234.000	    51.400	    34.300
  21.000	 237.600	    50.400	    34.300
  21.000	 241.200	    55.600	    34.300
  21.000	 244.800	    50.600	    34.300
  21.000	 248.400	    52.600	    34.300
  21.000	 252.000	    53.300	    34.300
  21.000	 255.600	    51.500	    34.300
  21.000	 259.200	    51.700	    34.300
  21.000	 262.800	    58.900	    34.300
  21.000	 266.400	    56.300	    34.300
  21.000	 270.000	    56.500	    34.300
  21.000	 273.600	    54.100	    34.300
  21.000	 277.200	    59.100	    34.300
  21.000	 280.800	    58.800	    34.300
  21.000	 284.400	    54.000	    34.300
  21.000	 288.000	    58.500	    34.300
  21.000	 291.600	    60.600	    34.300
  21.000	 295.200	    56.000	    34.300
  21.000	 298.800	    56.500	    34.300
  21.000	 302.400	    59.300	    34.300
  21.000	 306.000	    57.900	    34.300
  21.000	 309.600	    60.900	    34.300
  21.000	 313.200	    56.100	    34.300
  21.000	 316.800	    58.600	    34.300
  21.000	 320.400	    57.500	    34.300
  21.000	 324.000	    56.700	    34.300
  21.000	 327.600	    60.100	    34.300
  21.000	 331.200	    59.200	    34.300
  21.000	 334.800	    59.300	    34.300
  21.000	 338.400	    58.200	    34.300
  21.000	 342.000	    61.100	    34.300
  21.000	 345.600	    58.100	    34.300
  21.000	 349.200	    60.000	    34.300
  21.000	 352.800	    59.800	    34.300
  21.000	 356.400	    58.400	    34.300
  21.000	 360.000	    61.200	    34.300
  24.500	   0.000	    62.800	    38.100
  24.500	   3.600	    62.500	    38.100
  24.500	   7.200	    57.500	    38.100
  24.500	  10.800	    61.000	    38.100
  24.500	  14.400	    62.000	    38.100
  24.500	  18.000	    59.400	    38.100
  24.500	  21.600	    58.100	    38.100
  24.500	  25.200	    60.500	    38.100
  24.500	  28.800	    59.900	    38.100
  24.500	  32.400	    60.600	    38.100
  24.500	  36.000	    59.900	    38.100
  24.500	  39.600	    61.900	    38.100
  24.500	  43.200	    59.000	    38.100
  24.500	  46.800	    63.300	    38.100
  24.500	  50.400	    61.100	    38.100
  24.500	  54.000	    60.800	    38.100
  24.500	  57.600	    55.400	    38.100
  24.500	  61.200	    62.800	    38.100
  24.500	  64.800	    58.400	    38.100
  24.500	  68.400	    59.800	    38.100
  24.500	  72.000	    61.700	    38.100
  24.500	  75.600	    55.900	    38.100
  24.500	  79.200	    55.100	    38.100
  24.500	  82.800	    57.000	    38.100
  24.500	  86.400	    58.500	    38.100
  24.500	  90.000	    58.700	    38.100
  24.500	  93.600	    55.400	    38.100
  24.500	  97.200	    59.500	    38.100
  24.500	 100.800	    56.900	    38.100
  24.500	 104.400	    63.500	    38.100
  24.500	 108.000	    55.600	    38.100
  24.500	 111.600	    56.200	    38.100
  24.500	 115.200	    56.900	    38.100
  24.500	 118.800	    56.400	    38.100
  24.500	 122.400	    55.100	    38.100
  24.500	 126.000	    52.900	    38.100
  24.500	 129.600	    56.200	    38.100
  24.500	 133.200	    50.900	    38.100
  24.500	 136.800	    51.300	    38.100
  24.500	 140.400	    55.200	    38.100
  24.500	 144.000	    54.500	    38.100
  24.500	 147.600	    52.700	    38.100
  24.500	 151.200	    52.100	    38.100
  24.500	 154.800	    49.000	    38.100
  24.500	 158.400	    52.500	    38.100
  24.500	 162.000	    51.400	    38.100
  24.500	 165.600	    50.900	    38.100
  24.500	 169.200	    45.900	    38.100
  24.500	 172.800	    47.900	    38.100
  24.500	 176.400	    50.200	    38.100
  24.500	 180.000	    50.600	    38.100
  24.500	 183.600	    48.000	    38.100
  24.500	 187.200	    47.800	    38.100
  24.500	 190.800	    50.000	    38.100
  24.500	 194.400	    54.600	    38.100
  24.500	 198.000	    46.800	    38.100
  24.500	 201.600	    52.700	    38.100
  24.500	 205.200	    48.000	    38.100
  24.500	 208.800	    50.700	    38.100
  24.500	 212.400	    47.600	    38.100
  24.500	 216.000	    48.100	    38.100
  24.500	 219.600	    49.700	    38.100
  24.500	 223.200	    46.000	    38.100
  24.500	 226.800	    51.100	    38.100
  24.500	 230.400	    51.800	    38.100
  24.500	 234.000	    49.700	    38.100
  24.500	 237.600	    53.700	    38.100
  24.500	 241.200	    52.200	    38.100
  24.500	 244.800	    54.600	    38.100
  24.500	 248.400	    54.000	    38.100
  24.500	 252.000	    49.900	    38.100
  24.500	 255.600	    54.300	    38.100
  24.500	 259.200	    57.300	    38.100
  24.500	 262.800	    54.100	    38.100
  24.500	 266.400	    55.600	    38.100
  24.500	 270.000	    55.300	    38.100
  24.500	 273.600	    56.700	    38.100
  24.500	 277.200	    55.600	    38.100
  24.500	 280.800	    57.400	    38.100
  24.500	 284.400	    57.000	    38.100
  24.500	 288.000	    55.900	    38.100
  24.500	 291.600	    56.000	    38.100
  24.500	 295.200	    56.500	    38.100
  24.500	 298.800	    56.100	    38.100
  24.500	 302.400	    56.100	    38.100
  24.500	 306.000	    55.800	    38.100
  24.500	 309.600	    57.500	    38.100
  24.500	 313.200	    60.400	    38.100
  24.500	 316.800	    56.400	    38.100
  24.500	 320.400	    56.600	    38.100
  24.500	 324.000	    58.400	    38.100
  24.500	 327.600	    59.500	    38.100
  24.500	 331.200	    57.300	    38.100
  24.500	 334.800	    59.200	    38.100
  24.500	 338.400	    59.900	    38.100
  24.500	 342.000	    61.600	    38.100
  24.500	 345.600	    57.800	    38.100
  24.500	 349.200	    59.800	    38.100
  24.500	 352.800	    58.500	    38.100
  24.500	 356.400	    56.700	    38.100
  24.500	 360.000	    54.300	    38.100
  28.000	   0.000	    60.700	    37.500
  28.000	   3.600	    56.400	    37.500
  28.000	   7.200	    61.500	    37.500
  28.000	  10.800	    58.700	    37.500
  28.000	  14.400	    63.000	    37.500
  28.000	  18.000	    62.200	    37.500
  28.000	  21.600	    59.200	    37.500
  28.000	  25.200	    56.300	    37.500
  28.000	  28.800	    65.300	    37.500
  28.000	  32.400	    66.600	    37.500
  28.000	  36.000	    60.400	    37.500
  28.000	  39.600	    63.500	    37.500
  28.000	  43.200	    64.200	    37.500
  28.000	  46.800	    65.600	    37.500
  28.000	  50.400	    63.100	    37.500
  28.000	  54.000	    61.500	    37.500
  28.000	  57.600	    61.100	    37.500
  28.000	  61.200	    65.500	    37.500
  28.000	  64.800	    63.400	    37.500
  28.000	  68.400	    65.100	    37.500
  28.000	  72.000	    63.600	    37.500
  28.000	  75.600	    61.100	    37.500
  28.000	  79.200	    58.500	    37.500
  28.000	  82.800	    63.100	    37.500
  28.000	  86.400	    60.100	    37.500
  28.000	  90.000	    61.300	    37.500
  28.000	  93.600	    60.400	    37.500
  28.000	  97.200	    59.300	    37.500
  28.000	 100.800	    58.400	    37.500
  28.000	 104.400	    60.400	    37.500
  28.000	 108.000	    56.900	    37.500
  28.000	 111.600	    60.000	    37.500
  28.000	 115.200	    57.000	    37.500
  28.000	 118.800	    56.100	    37.500
  28.000	 122.400	    56.700	    37.500
  28.000	 126.000	    63.700	    37.500
  28.000	 129.600	    54.100	    37.500
  28.000	 133.200	    53.500	    37.500
  28.000	 136.800	    57.800	    37.500
  28.000	 140.400	    54.400	    37.500
  28.000	 144.000	    51.500	    37.500
  28.000	 147.600	    48.900	    37.500
  28.000	 151.200	    55.700	    37.500
  28.000	 154.800	    54.900	    37.500
  28.000	 158.400	    55.900	    37.500
  28.000	 162.000	    52.100	    37.500
  28.000	 165.600	    48.100	    37.500
  28.000	 169.200	    50.900	    37.500
  28.000	 172.800	    49.000	    37.500
  28.000	 176.400	    48.600	    37.500
  28.000	 180.000	    54.800	    37.500
  28.000	 183.600	    51.400	    37.500
  28.000	 187.200	    51.900	    37.500
  28.000	 190.800	    47.100	    37.500
  28.000	 194.400	    50.600	    37.500
  28.000	 198.000	    49.900	    37.500
  28.000	 201.600	    54.600	    37.500
  28.000	 205.200	    49.200	    37.500
  28.000	 208.800	    53.600	    37.500
  28.000	 212.400	    54.000	    37.500
  28.000	 216.000	    50.100	    37.500
  28.000	 219.600	    52.000	    37.500
  28.000	 223.200	    48.800	    37.500
  28.000	 226.800	    54.000	    37.500
  28.000	 230.400	    50.300	    37.500
  28.000	 234.000	    50.500	    37.500
  28.000	 237.600	    51.000	    37.500
  28.000	 241.200	    55.000	    37.500
  28.000	 244.800	    56.100	    37.500
  28.000	 248.400	    54.100	    37.500
  28.000	 252.000	    54.400	    37.500
  28.000	 255.600	    54.600	    37.500
  28.000	 259.200	    57.200	    37.500
  28.000	 262.800	    56.100	    37.500
  28.000	 266.400	    55.200	    37.500
  28.000	 270.000	    56.800	    37.500
  28.000	 273.600	    61.000	    37.500
  28.000	 277.200	    58.400	    37.500
  28.000	 280.800	    55.300	    37.500
  28.000	 284.400	    58.700	    37.500
  28.000	 288.000	    57.500	    37.500
  28.000	 291.600	    56.600	    37.500
  28.000	 295.200	    52.600	    37.500
  28.000	 298.800	    57.600	    37.500
  28.000	 302.400	    55.400	    37.500
  28.000	 306.000	    56.600	    37.500
  28.000	 309.600	    57.700	    37.500
  28.000	 313.200	    60.500	    37.500
  28.000	 316.800	    58.700	    37.500
  28.000	 320.400	    58.900	    37.500
  28.000	 324.000	    62.600	    37.500
  28.000	 327.600	    57.800	    37.500
  28.000	 331.200	    59.200	    37.500
  28.000	 334.800	    58.900	    37.500
  28.000	 338.400	    56.800	    37.500
  28.000	 342.000	    62.000	    37.500
  28.000	 345.600	    61.600	    37.500
  28.000	 349.200	    58.200	    37.500
  28.000	 352.800	    62.300	    37.500
  28.000	 356.400	    60.400	    37.500
  28.000	 360.000	    63.000	    37.500
  31.500	   0.000	    62.400	    36.200
  31.500	   3.600	    62.600	    36.200
  31.500	   7.200	    64.000	    36.200
  31.500	  10.800	    65.700	    36.200
  31.500	  14.400	    61.100	    36.200
  31.500	  18.000	    62.300	    36.200
  31.500	  21.600	    64.800	    36.200
  31.500	  25.200	    63.800	    36.200
  31.500	  28.800	    58.900	    36.200
  31.500	  32.400	    62.900	    36.200
  31.500	  36.000	    68.000	    36.200
  31.500	  39.600	    62.400	    36.200
  31.500	  43.200	    65.000	    36.200
  31.500	  46.800	    64.900	    36.200
  31.500	  50.400	    67.000	    36.200
  31.500	  54.000	    65.800	    36.200
  31.500	  57.600	    59.400	    36.200
  31.500	  61.200	    66.500	    36.200
  31.500	  64.800	    65.500	    36.200
  31.500	  68.400	    67.500	    36.200
  31.500	  72.000	    63.500	    36.200
  31.500	  75.600	    65.800	    36.200
  31.500	  79.200	    67.300	    36.200
  31.500	  82.800	    65.000	    36.200
  31.500	  86.400	    61.100	    36.200
  31.500	  90.000	    66.300	    36.200
  31.500	  93.600	    66.300	    36.200
  31.500	  97.200	    64.100	    36.200
  31.500	 100.800	    61.300	    36.200
  31.500	 104.400	    63.600	    36.200
  31.500	 108.000	    59.000	    36.200
  31.500	 111.600	    60.600	    36.200
  31.500	 115.200	    60.300	    36.200
  31.500	 118.800	    59.300	    36.200
  31.500	 122.400	    60.100	    36.200
  31.500	 126.000	    60.500	    36.200
  31.500	 129.600	    58.000	    36.200
  31.500	 133.200	    58.200	    36.200
  31.500	 136.800	    61.000	    36.200
  31.500	 140.400	    57.800	    36.200
  31.500	 144.000	    54.900	    36.200
  31.500	 147.600	    55.500	    36.200
  31.500	 151.200	    53.500	    36.200
  31.500	 154.800	    57.500	    36.200
  31.500	 158.400	    51.500	    36.200
  31.500	 162.000	    56.400	    36.200
  31.500	 165.600	    54.100	    36.200
  31.500	 169.200	    54.100	    36.200
  31.500	 172.800	    53.700	    36.200
  31.500	 176.400	    53.300	    36.200
  31.500	 180.000	    55.000	    36.200
  31.500	 183.600	    54.700	    36.200
  31.500	 187.200	    47.800	    36.200
  31.500	 190.800	    55.100	    36.200
  31.500	 194.400	    48.700	    36.200
  31.500	 198.000	    53.700	    36.200
  31.500	 201.600	    56.400	    36.200
  31.500	 205.200	    49.300	    36.200
  31.500	 208.800	    55.200	    36.200
  31.500	 212.400	    52.100	    36.200
  31.500	 216.000	    52.900	    36.200
  31.500	 219.600	    53.400	    36.200
  31.500	 223.200	    58.100	    36.200
  31.500	 226.800	    53.400	    36.200
  31.500	 230.400	    52.200	    36.200
  31.500	 234.000	    54.300	    36.200
  31.500	 237.600	    56.700	    36.200
  31.500	 241.200	    54.700	    36.200
  31.500	 244.800	    55.200	    36.200
  31.500	 248.400	    57.200	    36.200
  31.500	 252.000	    53.900	    36.200
  31.500	 255.600	    56.600	    36.200
  31.500	 259.200	    56.000	    36.200
  31.500	 262.800	    61.900	    36.200
  31.500	 266.400	    58.600	    36.200
  31.500	 270.000	    57.200	    36.200
  31.500	 273.600	    54.900	    36.200
  31.500	 277.200	    57.200	    36.200
  31.500	 280.800	    53.900	    36.200
  31.500	 284.400	    60.100	    36.200
  31.500	 288.000	    58.800	    36.200
  31.500	 291.600	    53.000	    36.200
  31.500	 295.200	    56.800	    36.200
  31.500	 298.800	    56.700	    36.200
  31.500	 302.400	    58.100	    36.200
  31.500	 306.000	    62.200	    36.200
  31.500	 309.600	    55.700	    36.200
  31.500	 313.200	    61.900	    36.200
  31.500	 316.800	    60.600	    36.200
  31.500	 320.400	    64.800	    36.200
  31.500	 324.000	    61.200	    36.200
  31.500	 327.600	    65.300	    36.200
  31.500	 331.200	    59.700	    36.200
  31.500	 334.800	    62.800	    36.200
  31.500	 338.400	    62.700	    36.200
  31.500	 342.000	    60.100	    36.200
  31.500	 345.600	    62.900	    36.200
  31.500	 349.200	    66.200	    36.200
  31.500	 352.800	    63.800	    36.200
  31.500	 356.400	    60.800	    36.200
  31.500	 360.000	    62.500	    36.200
  35.000	   0.000	    62.200	    35.000
  35.000	   3.600	    70.800	    35.000
  35.000	   7.200	    63.400	    35.000
  35.000	  10.800	    69.400	    35.000
  35.000	  14.400	    66.300	    35.000
  35.000	  18.000	    69.800	    35.000
  35.000	  21.600	    61.800	    35.000
  35.000	  25.200	    67.000	    35.000
  35.000	  28.800	    66.500	    35.000
  35.000	  32.400	    64.600	    35.000
  35.000	  36.000	    67.400	    35.000
  35.000	  39.600	    67.000	    35.000
  35.000	  43.200	    66.800	    35.000
  35.000	  46.800	    65.600	    35.000
  35.000	  50.400	    69.300	    35.000
  35.000	  54.000	    70.600	    35.000
  35.000	  57.600	    73.900	    35.000
  35.000	  61.200	    70.100	    35.000
  35.000	  64.800	    62.500	    35.000
  35.000	  68.400	    72.800	    35.000
  35.000	  72.000	    72.200	    35.000
  35.000	  75.600	    67.000	    35.000
  35.000	  79.200	    67.700	    35.000
  35.000	  82.800	    67.900	    35.000
  35.000	  86.400	    73.300	    35.000
  35.000	  90.000	    68.700	    35.000
  35.000	  93.600	    69.700	    35.000
  35.000	  97.200	    69.400	    35.000
  35.000	 100.800	    65.900	    35.000
  35.000	 104.400	    67.000	    35.000
  35.000	 108.000	    69.300	    35.000
  35.000	 111.600	    67.600	    35.000
  35.000	 115.200	    64.800	    35.000
  35.000	 118.800	    68.600	    35.000
  35.000	 122.400	    69.800	    35.000
  35.000	 126.000	    59.300	    35.000
  35.000	 129.600	    64.600	    35.000
  35.000	 133.200	    59.400	    35.000
  35.000	 136.800	    57.600	    35.000
  35.000	 140.400	    60.800	    35.000
  35.000	 144.000	    55.000	    35.000
  35.000	 147.600	    58.600	    35.000
  35.000	 151.200	    54.800	    35.000
  35.000	 154.800	    57.100	    35.000
  35.000	 158.400	    58.600	    35.000
  35.000	 162.000	    60.500	    35.000
  35.000	 165.600	    61.100	    35.000
  35.000	 169.200	    55.600	    35.000
  35.000	 172.800	    55.100	    35.000
  35.000	 176.400	    55.200	    35.000
  35.000	 180.000	    56.800	    35.000
  35.000	 183.600	    59.200	    35.000
  35.000	 187.200	    57.100	    35.000
  35.000	 190.800	    57.700	    35.000
  35.000	 194.400	    53.400	    35.000
  35.000	 198.000	    52.800	    35.000
  35.000	 201.600	    50.600	    35.000
  35.000	 205.200	    55.300	    35.000
  35.000	 208.800	    54.300	    35.000
  35.000	 212.400	    54.200	    35.000
  35.000	 216.000	    56.100	    35.000
  35.000	 219.600	    55.500	    35.000
  35.000	 223.200	    58.100	    35.000
  35.000	 226.800	    50.600	    35.000
  35.000	 230.400	    56.000	    35.000
  35.000	 234.000	    55.100	    35.000
  35.000	 237.600	    55.200	    35.000
  35.000	 241.200	    52.400	    35.000
  35.000	 244.800	    56.700	    35.000
  35.000	 248.400	    58.200	    35.000
  35.000	 252.000	    61.300	    35.000
  35.000	 255.600	    59.000	    35.000
  35.000	 259.200	    59.200	    35.000
  35.000	 262.800	    57.500	    35.000
  35.000	 266.400	    61.600	    35.000
  35.000	 270.000	    56.600	    35.000
  35.000	 273.600	    64.700	    35.000
  35.000	 277.200	    58.600	    35.000
  35.000	 280.800	    62.900	    35.000
  35.000	 284.400	    57.500	    35.000
  35.000	 288.000	    57.200	    35.000
  35.000	 291.600	    61.200	    35.000
  35.000	 295.200	    60.200	    35.000
  35.000	 298.800	    58.400	    35.000
  35.000	 302.400	    59.100	    35.000
  35.000	 306.000	    62.200	    35.000
  35.000	 309.600	    60.800	    35.000
  35.000	 313.200	    67.200	    35.000
  35.000	 316.800	    64.400	    35.000
  35.000	 320.400	    60.900	    35.000
  35.000	 324.000	    61.900	    35.000
  35.000	 327.600	    64.000	    35.000
  35.000	 331.200	    65.200	    35.000
  35.000	 334.800	    65.900	    35.000
  35.000	 338.400	    62.300	    35.000
  35.000	 342.000	    65.100	    35.000
  35.000	 345.600	    64.500	    35.000
  35.000	 349.200	    64.300	    35.000
  35.000	 352.800	    62.200	    35.000
  35.000	 356.400	    64.000	    35.000
  35.000	 360.000	    67.400	    35.000
  38.500	   0.000	    66.800	    35.100
  38.500	   3.600	    69.000	    35.100
  38.500	   7.200	    67.600	    35.100
  38.500	  10.800	    69.100	    35.100
  38.500	  14.400	    71.500	    35.100
  38.500	  18.000	    73.500	    35.100
  38.500	  21.600	    69.800	    35.100
  38.500	  25.200	    72.500	    35.100
  38.500	  28.800	    74.400	    35.100
  38.500	  32.400	    69.600	    35.100
  38.500	  36.000	    80.400	    35.100
  38.500	  39.600	    72.000	    35.100
  38.500	  43.200	    72.000	    35.100
  38.500	  46.800	    73.600	    35.100
  38.500	  50.400	    77.100	    35.100
  38.500	  54.000	    76.900	    35.100
  38.500	  57.600	    77.100	    35.100
  38.500	  61.200	    75.000	    35.100
  38.500	  64.800	    73.700	    35.100
  38.500	  68.400	    79.100	    35.100
  38.500	  72.000	    79.000	    35.100
  38.500	  75.600	    76.100	    35.100
  38.500	  79.200	    76.100	    35.100
  38.500	  82.800	    83.500	    35.100
  38.500	  86.400	    73.500	    35.100
  38.500	  90.000	    79.000	    35.100
  38.500	  93.600	    74.600	    35.100
  38.500	  97.200	    78.300	    35.100
  38.500	 100.800	    74.600	    35.100
  38.500	 104.400	    72.800	    35.100
  38.500	 108.000	    72.200	    35.100
  38.500	 111.600	    66.600	    35.100
  38.500	 115.200	    72.200	    35.100
  38.500	 118.800	    72.800	    35.100
  38.500	 122.400	    65.800	    35.100
  38.500	 126.000	    66.300	    35.100
  38.500	 129.600	    65.400	    35.100
  38.500	 133.200	    68.400	    35.100
  38.500	 136.800	    66.400	    35.100
  38.500	 140.400	    64.000	    35.100
  38.500	 144.000	    62.700	    35.100
  38.500	 147.600	    63.200	    35.100
  38.500	 151.200	    64.200	    35.100
  38.500	 154.800	    60.300	    35.100
  38.500	 158.400	    62.100	    35.100
  38.500	 162.000	    61.700	    35.100
  38.500	 165.600	    65.200	    35.100
  38.500	 169.200	    60.100	    35.100
  38.500	 172.800	    62.400	    35.100
  38.500	 176.400	    61.000	    35.100
  38.500	 180.000	    59.600	    35.100
  38.500	 183.600	    60.000	    35.100
  38.500	 187.200	    60.200	    35.100
  38.500	 190.800	    56.900	    35.100
  38.500	 194.400	    61.800	    35.100
  38.500	 198.000	    54.700	    35.100
  38.500	 201.600	    57.300	    35.100
  38.500	 205.200	    58.300	    35.100
  38.500	 208.800	    60.900	    35.100
  38.500	 212.400	    61.300	    35.100
  38.500	 216.000	    58.300	    35.100
  38.500	 219.600	    60.200	    35.100
  38.500	 223.200	    55.000	    35.100
  38.500	 226.800	    58.800	    35.100
  38.500	 230.400	    60.300	    35.100
  38.500	 234.000	    59.700	    35.100
  38.500	 237.600	    57.200	    35.100
  38.500	 241.200	    61.400	    35.100
  38.500	 244.800	    61.400	    35.100
  38.500	 248.400	    63.400	    35.100
  38.500	 252.000	    60.100	    35.100
  38.500	 255.600	    63.300	    35.100
  38.500	 259.200	    60.400	    35.100
  38.500	 262.800	    64.400	    35.100
  38.500	 266.400	    62.200	    35.100
  38.500	 270.000	    64.200	    35.100
  38.500	 273.600	    62.100	    35.100
  38.500	 277.200	    65.300	    35.100
  38.500	 280.800	    65.600	    35.100
  38.500	 284.400	    60.100	    35.100
  38.500	 288.000	    61.500	    35.100
  38.500	 291.600	    65.000	    35.100
  38.500	 295.200	    62.600	    35.100
  38.500	 298.800	    66.800	    35.100
  38.500	 302.400	    67.800	    35.100
  38.500	 306.000	    63.800	    35.100
  38.500	 309.600	    68.800	    35.100
  38.500	 313.200	    69.100	    35.100
  38.500	 316.800	    64.200	    35.100
  38.500	 320.400	    69.100	    35.100
  38.500	 324.000	    65.900	    35.100
  38.500	 327.600	    70.600	    35.100
  38.500	 331.200	    70.300	    35.100
  38.500	 334.800	    72.800	    35.100
  38.500	 338.400	    70.500	    35.100
  38.500	 342.000	    72.400	    35.100
  38.500	 345.600	    75.600	    35.100
  38.500	 349.200	    70.300	    35.100
  38.500	 352.800	    67.500	    35.100
  38.500	 356.400	    65.200	    35.100
  38.500	 360.000	    71.500	    35.100
  42.000	   0.000	    76.500	    38.600
  42.000	   3.600	    75.400	    38.600
  42.000	   7.200	    70.000	    38.600
  42.000	  10.800	    76.100	    38.600
  42.000	  14.400	    72.900	    38.600
  42.000	  18.000	    75.100	    38.600
  42.000	  21.600	    72.900	    38.600
  42.000	  25.200	    76.700	    38.600
  42.000	  28.800	    77.000	    38.600
  42.000	  32.400	    76.200	    38.600
  42.000	  36.000	    71.100	    38.600
  42.000	  39.600	    73.800	    38.600
  42.000	  43.200	    81.400	    38.600
  42.000	  46.800	    80.300	    38.600
  42.000	  50.400	    79.100	    38.600
  42.000	  54.000	    84.900	    38.600
  42.000	  57.600	    81.200	    38.600
  42.000	  61.200	    77.600	    38.600
  42.000	  64.800	    77.900	    38.600
  42.000	  68.400	    80.000	    38.600
  42.000	  72.000	    84.500	    38.600
  42.000	  75.600	    84.500	    38.600
  42.000	  79.200	    84.300	    38.600
  42.000	  82.800	    83.500	    38.600
  42.000	  86.400	    81.100	    38.600
  42.000	  90.000	    80.800	    38.600
  42.000	  93.600	    81.300	    38.600
  42.000	  97.200	    82.600	    38.600
  42.000	 100.800	    78.700	    38.600
  42.000	 104.400	    80.300	    38.600
  42.000	 108.000	    75.800	    38.600
  42.000	 111.600	    71.100	    38.600
  42.000	 115.200	    74.000	    38.600
  42.000	 118.800	    72.800	    38.600
  42.000	 122.400	    80.700	    38.600
  42.000	 126.000	    75.900	    38.600
  42.000	 129.600	    78.700	    38.600
  42.000	 133.200	    68.000	    38.600
  42.000	 136.800	    68.100	    38.600
  42.000	 140.400	    74.100	    38.600
  42.000	 144.000	    70.800	    38.600
  42.000	 147.600	    67.900	    38.600
  42.000	 151.200	    69.500	    38.600
  42.000	 154.800	    67.000	    38.600
  42.000	 158.400	    69.600	    38.600
  42.000	 162.000	    68.600	    38.600
  42.000	 165.600	    66.400	    38.600
  42.000	 169.200	    62.800	    38.600
  42.000	 172.800	    70.000	    38.600
  42.000	 176.400	    67.000	    38.600
  42.000	 180.000	    62.800	    38.600
  42.000	 183.600	    64.000	    38.600
  42.000	 187.200	    64.300	    38.600
  42.000	 190.800	    67.400	    38.600
  42.000	 194.400	    62.400	    38.600
  42.000	 198.000	    66.900	    38.600
  42.000	 201.600	    63.900	    38.600
  42.000	 205.200	    60.400	    38.600
  42.000	 208.800	    59.900	    38.600
  42.000	 212.400	    60.700	    38.600
  42.000	 216.000	    62.200	    38.600
  42.000	 219.600	    67.200	    38.600
  42.000	 223.200	    67.900	    38.600
  42.000	 226.800	    63.400	    38.600
  42.000	 230.400	    65.200	    38.600
  42.000	 234.000	    63.300	    38.600
  42.000	 237.600	    63.400	    38.600
  42.000	 241.200	    66.100	    38.600
  42.000	 244.800	    59.200	    38.600
  42.000	 248.400	    70.600	    38.600
  42.000	 252.000	    62.200	    38.600
  42.000	 255.600	    64.200	    38.600
  42.000	 259.200	    64.000	    38.600
  42.000	 262.800	    68.000	    38.600
  42.000	 266.400	    66.000	    38.600
  42.000	 270.000	    68.600	    38.600
  42.000	 273.600	    70.600	    38.600
  42.000	 277.200	    70.100	    38.600
  42.000	 280.800	    70.600	    38.600
  42.000	 284.400	    68.200	    38.600
  42.000	 288.000	    68.700	    38.600
  42.000	 291.600	    72.600	    38.600
  42.000	 295.200	    69.300	    38.600
  42.000	 298.800	    69.900	    38.600
  42.000	 302.400	    69.100	    38.600
  42.000	 306.000	    67.600	    38.600
  42.000	 309.600	    68.100	    38.600
  42.000	 313.200	    76.800	    38.600
  42.000	 316.800	    73.300	    38.600
  42.000	 320.400	    73.500	    38.600
  42.000	 324.000	    70.100	    38.600
  42.000	 327.600	    76.600	    38.600
  42.000	 331.200	    71.000	    38.600
  42.000	 334.800	    76.500	    38.600
  42.000	 338.400	    72.400	    38.600
  42.000	 342.000	    66.900	    38.600
  42.000	 345.600	    71.100	    38.600
  42.000	 349.200	    75.200	    38.600
  42.000	 352.800	    73.300	    38.600
  42.000	 356.400	    74.800	    38.600
  42.000	 360.000	    73.000	    38.600
  45.500	   0.000	    81.600	    34.600
  45.500	   3.600	    80.400	    34.600
  45.500	   7.200	    84.700	    34.600
  45.500	  10.800	    81.500	    34.600
  45.500	  14.400	    79.300	    34.600
  45.500	  18.000	    82.200	    34.600
  45.500	  21.600	    81.200	    34.600
  45.500	  25.200	    81.100	    34.600
  45.500	  28.800	    86.900	    34.600
  45.500	  32.400	    85.100	    34.600
  45.500	  36.000	    85.200	    34.600
  45.500	  39.600	    84.200	    34.600
  45.500	  43.200	    82.500	    34.600
  45.500	  46.800	    90.400	    34.600
  45.500	  50.400	    91.700	    34.600
  45.500	  54.000	    91.900	    34.600
  45.500	  57.600	    89.500	    34.600
  45.500	  61.200	    94.200	    34.600
  45.500	  64.800	    87.100	    34.600
  45.500	  68.400	    91.500	    34.600
  45.500	  72.000	    90.000	    34.600
  45.500	  75.600	    90.400	    34.600
  45.500	  79.200	    93.000	    34.600
  45.500	  82.800	    90.800	    34.600
  45.500	  86.400	    89.500	    34.600
  45.500	  90.000	    87.900	    34.600
  45.500	  93.600	    90.900	    34.600
  45.500	  97.200	    89.200	    34.600
  45.500	 100.800	    85.100	    34.600
  45.500	 104.400	    84.700	    34.600
  45.500	 108.000	    83.200	    34.600
  45.500	 111.600	    85.200	    34.600
  45.500	 115.200	    79.200	    34.600
  45.500	 118.800	    82.200	    34.600
  45.500	 122.400	    79.500	    34.600
  45.500	 126.000	    78.000	    34.600
  45.500	 129.600	    86.000	    34.600
  45.500	 133.200	    82.200	    34.600
  45.500	 136.800	    78.000	    34.600
  45.500	 140.400	    81.500	    34.600
  45.500	 144.000	    80.300	    34.600
  45.500	 147.600	    76.800	    34.600
  45.500	 151.200	    78.600	    34.600
  45.500	 154.800	    78.300	    34.600
  45.500	 158.400	    73.400	    34.600
  45.500	 162.000	    74.200	    34.600
  45.500	 165.600	    77.100	    34.600
  45.500	 169.200	    74.000	    34.600
  45.500	 172.800	    70.400	    34.600
  45.500	 176.400	    75.400	    34.600
  45.500	 180.000	    73.500	    34.600
  45.500	 183.600	    69.200	    34.600
  45.500	 187.200	    70.500	    34.600
  45.500	 190.800	    68.100	    34.600
  45.500	 194.400	    66.000	    34.600
  45.500	 198.000	    65.400	    34.600
  45.500	 201.600	    69.900	    34.600
  45.500	 205.200	    68.600	    34.600
  45.500	 208.800	    69.900	    34.600
  45.500	 212.400	    66.500	    34.600
  45.500	 216.000	    68.200	    34.600
  45.500	 219.600	    69.600	    34.600
  45.500	 223.200	    67.900	    34.600
  45.500	 226.800	    70.900	    34.600
  45.500	 230.400	    72.000	    34.600
  45.500	 234.000	    72.000	    34.600
  45.500	 237.600	    76.100	    34.600
  45.500	 241.200	    69.600	    34.600
  45.500	 244.800	    74.100	    34.600
  45.500	 248.400	    76.100	    34.600
  45.500	 252.000	    71.600	    34.600
  45.500	 255.600	    73.700	    34.600
  45.500	 259.200	    69.600	    34.600
  45.500	 262.800	    73.100	    34.600
  45.500	 266.400	    68.800	    34.600
  45.500	 270.000	    73.500	    34.600
  45.500	 273.600	    75.300	    34.600
  45.500	 277.200	    75.900	    34.600
  45.500	 280.800	    70.400	    34.600
  45.500	 284.400	    71.700	    34.600
  45.500	 288.000	    74.900	    34.600
  45.500	 291.600	    72.600	    34.600
  45.500	 295.200	    78.300	    34.600
  45.500	 298.800	    71.300	    34.600
  45.500	 302.400	    71.500	    34.600
  45.500	 306.000	    78.100	    34.600
  45.500	 309.600	    82.100	    34.600
  45.500	 313.200	    77.300	    34.600
  45.500	 316.800	    80.200	    34.600
  45.500	 320.400	    77.500	    34.600
  45.500	 324.000	    85.200	    34.600
  45.500	 327.600	    80.500	    34.600
  45.500	 331.200	    82.600	    34.600
  45.500	 334.800	    81.300	    34.600
  45.500	 338.400	    74.900	    34.600
  45.500	 342.000	    74.800	    34.600
  45.500	 345.600	    82.200	    34.600
  45.500	 349.200	    83.200	    34.600
  45.500	 352.800	    81.900	    34.600
  45.500	 356.400	    79.900	    34.600
  45.500	 360.000	    80.400	    34.600
  49.000	   0.000	    80.900	    37.500
  49.000	   3.600	    88.800	    37.500
  49.000	   7.200	    93.100	    37.500
  49.000	  10.800	    92.000	    37.500
  49.000	  14.400	    86.100	    37.500
  49.000	  18.000	    88.400	    37.500
  49.000	  21.600	    94.300	    37.500
  49.000	  25.200	    90.300	    37.500
  49.000	  28.800	    86.300	    37.500
  49.000	  32.400	    88.900	    37.500
  49.000	  36.000	    90.300	    37.500
  49.000	  39.600	    96.000	    37.500
  49.000	  43.200	    90.500	    37.500
  49.000	  46.800	    89.100	    37.500
  49.000	  50.400	    97.000	    37.500
  49.000	  54.000	    87.700	    37.500
  49.000	  57.600	    96.700	    37.500
  49.000	  61.200	   101.300	    37.500
  49.000	  64.800	    98.900	    37.500
  49.000	  68.400	    92.900	    37.500
  49.000	  72.000	   101.800	    37.500
  49.000	  75.600	    94.400	    37.500
  49.000	  79.200	    98.500	    37.500
  49.000	  82.800	    92.100	    37.500
  49.000	  86.400	    96.800	    37.500
  49.000	  90.000	    90.900	    37.500
  49.000	  93.600	    89.100	    37.500
  49.000	  97.200	    90.800	    37.500
  49.000	 100.800	    92.400	    37.500
  49.000	 104.400	    92.600	    37.500
  49.000	 108.000	    88.800	    37.500
  49.000	 111.600	    84.200	    37.500
  49.000	 115.200	    90.100	    37.500
  49.000	 118.800	    85.900	    37.500
  49.000	 122.400	    88.000	    37.500
  49.000	 126.000	    84.900	    37.500
  49.000	 129.600	    86.000	    37.500
  49.000	 133.200	    84.700	    37.500
  49.000	 136.800	    84.100	    37.500
  49.000	 140.400	    91.400	    37.500
  49.000	 144.000	    85.600	    37.500
  49.000	 147.600	    80.700	    37.500
  49.000	 151.200	    79.200	    37.500
  49.000	 154.800	    82.900	    37.500
  49.000	 158.400	    83.300	    37.500
  49.000	 162.000	    81.000	    37.500
  49.000	 165.600	    82.100	    37.500
  49.000	 169.200	    81.500	    37.500
  49.000	 172.800	    75.100	    37.500
  49.000	 176.400	    79.400	    37.500
  49.000	 180.000	    80.600	    37.500
  49.000	 183.600	    75.300	    37.500
  49.000	 187.200	    81.100	    37.500
  49.000	 190.800	    76.200	    37.500
  49.000	 194.400	    75.400	    37.500
  49.000	 198.000	    80.800	    37.500
  49.000	 201.600	    75.800	    37.500
  49.000	 205.200	    73.700	    37.500
  49.000	 208.800	    74.800	    37.500
  49.000	 212.400	    77.800	    37.500
  49.000	 216.000	    70.800	    37.500
  49.000	 219.600	    77.900	    37.500
  49.000	 223.200	    74.000	    37.500
  49.000	 226.800	    79.200	    37.500
  49.000	 230.400	    74.400	    37.500
  49.000	 234.000	    72.400	    37.500
  49.000	 237.600	    82.000	    37.500
  49.000	 241.200	    74.900	    37.500
  49.000	 244.800	    77.700	    37.500
  49.000	 248.400	    80.900	    37.500
  49.000	 252.000	    77.900	    37.500
  49.000	 255.600	    74.300	    37.500
  49.000	 259.200	    76.700	    37.500
  49.000	 262.800	    79.100	    37.500
  49.000	 266.400	    85.800	    37.500
  49.000	 270.000	    79.600	    37.500
  49.000	 273.600	    81.400	    37.500
  49.000	 277.200	    81.300	    37.500
  49.000	 280.800	    80.700	    37.500
  49.000	 284.400	    81.700	    37.500
  49.000	 288.000	    82.600	    37.500
  49.000	 291.600	    85.600	    37.500
  49.000	 295.200	    86.900	    37.500
  49.000	 298.800	    90.300	    37.500
  49.000	 302.400	    90.700	    37.500
  49.000	 306.000	    84.700	    37.500
  49.000	 309.600	    88.800	    37.500
  49.000	 313.200	    91.700	    37.500
  49.000	 316.800	    90.800	    37.500
  49.000	 320.400	    94.200	    37.500
  49.000	 324.000	    92.100	    37.500
  49.000	 327.600	    92.400	    37.500
  49.000	 331.200	    90.000	    37.500
  49.000	 334.800	    90.000	    37.500
  49.000	 338.400	    86.800	    37.500
  49.000	 342.000	    88.700	    37.500
  49.000	 345.600	    86.600	    37.500
  49.000	 349.200	    88.600	    37.500
  49.000	 352.800	    89.800	    37.500
  49.000	 356.400	    86.900	    37.500
  49.000	 360.000	    88.600	    37.500
  52.500	   0.000	    89.100	    35.700
  52.500	   3.600	    90.800	    35.700
  52.500	   7.200	    91.400	    35.700
  52.500	  10.800	    88.000	    35.700
  52.500	  14.400	    89.100	    35.700
  52.500	  18.000	    89.700	    35.700
  52.500	  21.600	    87.900	    35.700
  52.500	  25.200	    91.600	    35.700
  52.500	  28.800	    90.400	    35.700
  52.500	  32.400	    91.300	    35.700
  52.500	  36.000	    88.800	    35.700
  52.500	  39.600	    89.300	    35.700
  52.500	  43.200	    90.200	    35.700
  52.500	  46.800	    97.000	    35.700
  52.500	  50.400	   100.000	    35.700
  52.500	  54.000	    97.900	    35.700
  52.500	  57.600	   102.100	    35.700
  52.500	  61.200	    94.600	    35.700
  52.500	  64.800	    97.900	    35.700
  52.500	  68.400	   100.900	    35.700
  52.500	  72.000	   100.700	    35.700
  52.500	  75.600	    95.600	    35.700
  52.500	  79.200	   104.200	    35.700
  52.500	  82.800	    98.500	    35.700
  52.500	  86.400	    95.300	    35.700
  52.500	  90.000	    95.500	    35.700
  52.500	  93.600	    95.400	    35.700
  52.500	  97.200	    95.300	    35.700
  52.500	 100.800	    89.300	    35.700
  52.500	 104.400	    87.700	    35.700
  52.500	 108.000	    94.900	    35.700
  52.500	 111.600	    92.300	    35.700
  52.500	 115.200	    91.300	    35.700
  52.500	 118.800	    89.100	    35.700
  52.500	 122.400	    89.400	    35.700
  52.500	 126.000	    84.200	    35.700
  52.500	 129.600	    88.800	    35.700
  52.500	 133.200	    90.800	    35.700
  52.500	 136.800	    88.400	    35.700
  52.500	 140.400	    88.300	    35.700
  52.500	 144.000	    90.100	    35.700
  52.500	 147.600	    84.200	    35.700
  52.500	 151.200	    81.100	    35.700
  52.500	 154.800	    91.500	    35.700
  52.500	 158.400	    86.000	    35.700
  52.500	 162.000	    76.800	    35.700
  52.500	 165.600	    87.000	    35.700
  52.500	 169.200	    82.200	    35.700
  52.500	 172.800	    82.800	    35.700
  52.500	 176.400	    86.800	    35.700
  52.500	 180.000	    83.800	    35.700
  52.500	 183.600	    84.500	    35.700
  52.500	 187.200	    85.200	    35.700
  52.500	 190.800	    83.500	    35.700
  52.500	 194.400	    80.200	    35.700
  52.500	 198.000	    80.800	    35.700
  52.500	 201.600	    77.000	    35.700
  52.500	 205.200	    82.300	    35.700
  52.500	 208.800	    77.000	    35.700
  52.500	 212.400	    79.800	    35.700
  52.500	 216.000	    76.100	    35.700
  52.500	 219.600	    78.800	    35.700
  52.500	 223.200	    74.000	    35.700
  52.500	 226.800	    79.100	    35.700
  52.500	 230.400	    77.700	    35.700
  52.500	 234.000	    82.300	    35.700
  52.500	 237.600	    81.900	    35.700
  52.500	 241.200	    82.400	    35.700
  52.500	 244.800	    82.600	    35.700
  52.500	 248.400	    79.600	    35.700
  52.500	 252.000	    81.600	    35.700
  52.500	 255.600	    83.200	    35.700
  52.500	 259.200	    85.200	    35.700
  52.500	 262.800	    89.800	    35.700
  52.500	 266.400	    81.600	    35.700
  52.500	 270.000	    89.700	    35.700
  52.500	 273.600	    85.900	    35.700
  52.500	 277.200	    86.100	    35.700
  52.500	 280.800	    90.000	    35.700
  52.500	 284.400	    80.500	    35.700
  52.500	 288.000	    88.600	    35.700
  52.500	 291.600	    93.700	    35.700
  52.500	 295.200	    93.800	    35.700
  52.500	 298.800	    93.400	    35.700
  52.500	 302.400	    90.500	    35.700
  52.500	 306.000	    88.700	    35.700
  52.500	 309.600	    96.900	    35.700
  52.500	 313.200	    99.900	    35.700
  52.500	 316.800	    96.300	    35.700
  52.500	 320.400	   100.600	    35.700
  52.500	 324.000	   102.800	    35.700
  52.500	 327.600	    99.200	    35.700
  52.500	 331.200	    97.100	    35.700
  52.500	 334.800	    96.500	    35.700
  52.500	 338.400	    97.500	    35.700
  52.500	 342.000	    98.400	    35.700
  52.500	 345.600	    90.600	    35.700
  52.500	 349.200	    94.800	    35.700
  52.500	 352.800	    95.300	    35.700
  52.500	 356.400	    98.000	    35.700
  52.500	 360.000	    91.400	    35.700
  56.000	   0.000	    89.400	    34.400
  56.000	   3.600	    86.200	    34.400
  56.000	   7.200	    88.500	    34.400
  56.000	  10.800	    89.400	    34.400
  56.000	  14.400	    88.500	    34.400
  56.000	  18.000	    84.700	    34.400
  56.000	  21.600	    88.800	    34.400
  56.000	  25.200	    84.700	    34.400
  56.000	  28.800	    88.300	    34.400
  56.000	  32.400	    86.600	    34.400
  56.000	  36.000	    83.600	    34.400
  56.000	  39.600	    91.100	    34.400
  56.000	  43.200	    89.600	    34.400
  56.000	  46.800	    89.900	    34.400
  56.000	  50.400	    90.900	    34.400
  56.000	  54.000	    85.200	    34.400
  56.000	  57.600	    88.100	    34.400
  56.000	  61.200	    87.800	    34.400
  56.000	  64.800	    93.600	    34.400
  56.000	  68.400	    95.700	    34.400
  56.000	  72.000	    98.100	    34.400
  56.000	  75.600	    98.300	    34.400
  56.000	  79.200	    95.200	    34.400
  56.000	  82.800	    95.600	    34.400
  56.000	  86.400	    93.100	    34.400
  56.000	  90.000	    92.200	    34.400
  56.000	  93.600	    89.600	    34.400
  56.000	  97.200	    95.400	    34.400
  56.000	 100.800	    99.300	    34.400
  56.000	 104.400	    92.000	    34.400
  56.000	 108.000	    92.400	    34.400
  56.000	 111.600	    92.100	    34.400
  56.000	 115.200	    87.800	    34.400
  56.000	 118.800	    87.400	    34.400
  56.000	 122.400	    88.600	    34.400
  56.000	 126.000	    83.200	    34.400
  56.000	 129.600	    92.900	    34.400
  56.000	 133.200	    85.500	    34.400
  56.000	 136.800	    86.500	    34.400
  56.000	 140.400	    86.100	    34.400
  56.000	 144.000	    84.100	    34.400
  56.000	 147.600	    86.500	    34.400
  56.000	 151.200	    80.500	    34.400
  56.000	 154.800	    82.900	    34.400
  56.000	 158.400	    81.400	    34.400
  56.000	 162.000	    83.200	    34.400
  56.000	 165.600	    83.500	    34.400
  56.000	 169.200	    87.900	    34.400
  56.000	 172.800	    82.700	    34.400
  56.000	 176.400	    84.300	    34.400
  56.000	 180.000	    83.200	    34.400
  56.000	 183.600	    78.100	    34.400
  56.000	 187.200	    84.600	    34.400
  56.000	 190.800	    76.100	    34.400
  56.000	 194.400	    78.800	    34.400
  56.000	 198.000	    82.100	    34.400
  56.000	 201.600	    80.400	    34.400
  56.000	 205.200	    84.700	    34.400
  56.000	 208.800	    80.000	    34.400
  56.000	 212.400	    83.400	    34.400
  56.000	 216.000	    77.400	    34.400
  56.000	 219.600	    82.400	    34.400
  56.000	 223.200	    79.200	    34.400
  56.000	 226.800	    75.200	    34.400
  56.000	 230.400	    83.500	    34.400
  56.000	 234.000	    79.100	    34.400
  56.000	 237.600	    82.600	    34.400
  56.000	 241.200	    84.300	    34.400
  56.000	 244.800	    82.900	    34.400
  56.000	 248.400	    87.700	    34.400
  56.000	 252.000	    88.400	    34.400
  56.000	 255.600	    91.700	    34.400
  56.000	 259.200	    93.500	    34.400
  56.000	 262.800	    90.700	    34.400
  56.000	 266.400	    88.200	    34.400
  56.000	 270.000	    82.400	    34.400
  56.000	 273.600	    91.300	    34.400
  56.000	 277.200	    92.900	    34.400
  56.000	 280.800	    87.400	    34.400
  56.000	 284.400	    89.800	    34.400
  56.000	 288.000	    93.500	    34.400
  56.000	 291.600	    93.900	    34.400
  56.000	 295.200	    88.400	    34.400
  56.000	 298.800	    94.800	    34.400
  56.000	 302.400	   101.100	    34.400
  56.000	 306.000	   106.800	    34.400
  56.000	 309.600	    98.100	    34.400
  56.000	 313.200	    96.900	    34.400
  56.000	 316.800	   103.800	    34.400
  56.000	 320.400	   102.100	    34.400
  56.000	 324.000	    98.900	    34.400
  56.000	 327.600	   105.800	    34.400
  56.000	 331.200	   101.000	    34.400
  56.000	 334.800	   104.800	    34.400
  56.000	 338.400	   106.100	    34.400
  56.000	 342.000	   103.300	    34.400
  56.000	 345.600	   101.300	    34.400
  56.000	 349.200	    97.300	    34.400
  56.000	 352.800	   100.400	    34.400
  56.000	 356.400	    92.800	    34.400
  56.000	 360.000	   100.200	    34.400
  59.500	   0.000	    84.200	    31.500
  59.500	   3.600	    85.600	    31.500
  59.500	   7.200	    86.200	    31.500
  59.500	  10.800	    86.700	    31.500
  59.500	  14.400	    86.500	    31.500
  59.500	  18.000	    78.100	    31.500
  59.500	  21.600	    81.900	    31.500
  59.500	  25.200	    80.600	    31.500
  59.500	  28.800	    73.800	    31.500
  59.500	  32.400	    73.700	    31.500
  59.500	  36.000	    75.700	    31.500
  59.500	  39.600	    84.200	    31.500
  59.500	  43.200	    82.500	    31.500
  59.500	  46.800	    78.400	    31.500
  59.500	  50.400	    78.800	    31.500
  59.500	  54.000	    83.000	    31.500
  59.500	  57.600	    79.600	    31.500
  59.500	  61.200	    85.400	    31.500
  59.500	  64.800	    87.300	    31.500
  59.500	  68.400	    88.000	    31.500
  59.500	  72.000	    85.800	    31.500
  59.500	  75.600	    87.000	    31.500
  59.500	  79.200	    92.800	    31.500
  59.500	  82.800	    92.000	    31.500
  59.500	  86.400	    89.100	    31.500
  59.500	  90.000	    90.000	    31.500
  59.500	  93.600	    86.100	    31.500
  59.500	  97.200	    88.200	    31.500
  59.500	 100.800	    89.900	    31.500
  59.500	 104.400	    85.700	    31.500
  59.500	 108.000	    81.600	    31.500
  59.500	 111.600	    81.300	    31.500
  59.500	 115.200	    81.800	    31.500
  59.500	 118.800	    83.500	    31.500
  59.500	 122.400	    81.700	    31.500
  59.500	 126.000	    78.800	    31.500
  59.500	 129.600	    78.200	    31.500
  59.500	 133.200	    84.600	    31.500
  59.500	 136.800	    78.500	    31.500
  59.500	 140.400	    81.300	    31.500
  59.500	 144.000	    77.000	    31.500
  59.500	 147.600	    75.300	    31.500
  59.500	 151.200	    72.900	    31.500
  59.500	 154.800	    73.300	    31.500
  59.500	 158.400	    77.000	    31.500
  59.500	 162.000	    77.400	    31.500
  59.500	 165.600	    75.400	    31.500
  59.500	 169.200	    76.800	    31.500
  59.500	 172.800	    75.700	    31.500
  59.500	 176.400	    75.300	    31.500
  59.500	 180.000	    75.900	    31.500
  59.500	 183.600	    77.600	    31.500
  59.500	 187.200	    75.600	    31.500
  59.500	 190.800	    76.700	    31.500
  59.500	 194.400	    73.700	    31.500
  59.500	 198.000	    76.800	    31.500
  59.500	 201.600	    74.300	    31.500
  59.500	 205.200	    73.900	    31.500
  59.500	 208.800	    75.900	    31.500
  59.500	 212.400	    71.600	    31.500
  59.500	 216.000	    81.700	    31.500
  59.500	 219.600	    79.500	    31.500
  59.500	 223.200	    77.900	    31.500
  59.500	 226.800	    80.000	    31.500
  59.500	 230.400	    74.900	    31.500
  59.500	 234.000	    78.700	    31.500
  59.500	 237.600	    80.200	    31.500
  59.500	 241.200	    79.300	    31.500
  59.500	 244.800	    79.800	    31.500
  59.500	 248.400	    82.800	    31.500
  59.500	 252.000	    76.000	    31.500
  59.500	 255.600	    82.200	    31.500
  59.500	 259.200	    89.800	    31.500
  59.500	 262.800	    86.200	    31.500
  59.500	 266.400	    86.200	    31.500
  59.500	 270.000	    90.500	    31.500
  59.500	 273.600	    90.700	    31.500
  59.500	 277.200	    89.200	    31.500
  59.500	 280.800	    94.600	    31.500
  59.500	 284.400	    94.100	    31.500
  59.500	 288.000	    98.000	    31.500
  59.500	 291.600	    93.700	    31.500
  59.500	 295.200	    95.900	    31.500
  59.500	 298.800	    94.500	    31.500
  59.500	 302.400	    96.300	    31.500
  59.500	 306.000	   102.500	    31.500
  59.500	 309.600	   100.600	    31.500
  59.500	 313.200	    95.600	    31.500
  59.500	 316.800	   100.100	    31.500
  59.500	 320.400	   102.500	    31.500
  59.500	 324.000	    98.900	    31.500
  59.500	 327.600	   101.400	    31.500
  59.500	 331.200	   107.500	    31.500
  59.500	 334.800	    95.900	    31.500
  59.500	 338.400	    96.200	    31.500
  59.500	 342.000	    97.200	    31.500
  59.500	 345.600	    90.000	    31.500
  59.500	 349.200	    97.400	    31.500
  59.500	 352.800	    90.000	    31.500
  59.500	 356.400	    88.400	    31.500
  59.500	 360.000	    91.000	    31.500
  63.000	   0.000	    79.300	    32.200
  63.000	   3.600	    76.500	    32.200
  63.000	   7.200	    75.900	    32.200
  63.000	  10.800	    74.200	    32.200
  63.000	  14.400	    72.100	    32.200
  63.000	  18.000	    72.900	    32.200
  63.000	  21.600	    74.300	    32.200
  63.000	  25.200	    69.000	    32.200
  63.000	  28.800	    70.800	    32.200
  63.000	  32.400	    61.500	    32.200
  63.000	  36.000	    66.900	    32.200
  63.000	  39.600	    62.200	    32.200
  63.000	  43.200	    64.000	    32.200
  63.000	  46.800	    65.100	    32.200
  63.000	  50.400	    66.400	    32.200
  63.000	  54.000	    66.500	    32.200
  63.000	  57.600	    69.500	    32.200
  63.000	  61.200	    69.900	    32.200
  63.000	  64.800	    74.400	    32.200
  63.000	  68.400	    75.900	    32.200
  63.000	  72.000	    69.300	    32.200
  63.000	  75.600	    77.100	    32.200
  63.000	  79.200	    75.300	    32.200
  63.000	  82.800	    80.100	    32.200
  63.000	  86.400	    76.900	    32.200
  63.000	  90.000	    81.600	    32.200
  63.000	  93.600	    82.800	    32.200
  63.000	  97.200	    81.100	    32.200
  63.000	 100.800	    84.400	    32.200
  63.000	 104.400	    78.900	    32.200
  63.000	 108.000	    75.400	    32.200
  63.000	 111.600	    77.700	    32.200
  63.000	 115.200	    79.200	    32.200
  63.000	 118.800	    74.300	    32.200
  63.000	 122.400	    71.200	    32.200
  63.000	 126.000	    67.000	    32.200
  63.000	 129.600	    70.200	    32.200
  63.000	 133.200	    66.700	    32.200
  63.000	 136.800	    69.500	    32.200
  63.000	 140.400	    65.700	    32.200
  63.000	 144.000	    67.600	    32.200
  63.000	 147.600	    67.900	    32.200
  63.000	 151.200	    64.900	    32.200
  63.000	 154.800	    65.400	    32.200
  63.000	 158.400	    61.000	    32.200
  63.000	 162.000	    64.300	    32.200
  63.000	 165.600	    66.100	    32.200
  63.000	 169.200	    67.300	    32.200
  63.000	 172.800	    65.900	    32.200
  63.000	 176.400	    66.400	    32.200
  63.000	 180.000	    61.200	    32.200
  63.000	 183.600	    64.100	    32.200
  63.000	 187.200	    68.000	    32.200
  63.000	 190.800	    67.600	    32.200
  63.000	 194.400	    69.000	    32.200
  63.000	 198.000	    62.600	    32.200
  63.000	 201.600	    64.400	    32.200
  63.000	 205.200	    66.800	    32.200
  63.000	 208.800	    70.900	    32.200
  63.000	 212.400	    66.500	    32.200
  63.000	 216.000	    70.300	    32.200
  63.000	 219.600	    70.700	    32.200
  63.000	 223.200	    70.700	    32.200
  63.000	 226.800	    74.800	    32.200
  63.000	 230.400	    74.700	    32.200
  63.000	 234.000	    77.200	    32.200
  63.000	 237.600	    71.600	    32.200
  63.000	 241.200	    71.500	    32.200
  63.000	 244.800	    72.500	    32.200
  63.000	 248.400	    78.800	    32.200
  63.000	 252.000	    79.400	    32.200
  63.000	 255.600	    83.600	    32.200
  63.000	 259.200	    80.500	    32.200
  63.000	 262.800	    76.000	    32.200
  63.000	 266.400	    86.800	    32.200
  63.000	 270.000	    81.100	    32.200
  63.000	 273.600	    86.200	    32.200
  63.000	 277.200	    87.800	    32.200
  63.000	 280.800	    89.300	    32.200
  63.000	 284.400	    88.700	    32.200
  63.000	 288.000	    88.800	    32.200
  63.000	 291.600	    88.600	    32.200
  63.000	 295.200	    86.800	    32.200
  63.000	 298.800	    88.000	    32.200
  63.000	 302.400	    93.900	    32.200
  63.000	 306.000	    92.500	    32.200
  63.000	 309.600	    93.700	    32.200
  63.000	 313.200	    99.700	    32.200
  63.000	 316.800	    98.800	    32.200
  63.000	 320.400	    97.100	    32.200
  63.000	 324.000	    98.400	    32.200
  63.000	 327.600	    88.600	    32.200
  63.000	 331.200	    92.700	    32.200
  63.000	 334.800	    89.300	    32.200
  63.000	 338.400	    84.300	    32.200
  63.000	 342.000	    81.300	    32.200
  63.000	 345.600	    85.700	    32.200
  63.000	 349.200	    78.700	    32.200
  63.000	 352.800	    77.500	    32.200
  63.000	 356.400	    82.700	    32.200
  63.000	 360.000	    77.400	    32.200
  66.500	   0.000	    70.100	    30.600
  66.500	   3.600	    66.000	    30.600
  66.500	   7.200	    59.300	    30.600
  66.500	  10.800	    56.500	    30.600
  66.500	  14.400	    60.900	    30.600
  66.500	  18.000	    58.000	    30.600
  66.500	  21.600	    54.600	    30.600
  66.500	  25.200	    54.500	    30.600
  66.500	  28.800	    56.300	    30.600
  66.500	  32.400	    55.800	    30.600
  66.500	  36.000	    52.800	    30.600
  66.500	  39.600	    55.800	    30.600
  66.500	  43.200	    61.800	    30.600
  66.500	  46.800	    57.000	    30.600
  66.500	  50.400	    62.100	    30.600
  66.500	  54.000	    55.600	    30.600
  66.500	  57.600	    60.400	    30.600
  66.500	  61.200	    59.100	    30.600
  66.500	  64.800	    64.100	    30.600
  66.500	  68.400	    61.200	    30.600
  66.500	  72.000	    62.300	    30.600
  66.500	  75.600	    67.100	    30.600
  66.500	  79.200	    65.800	    30.600
  66.500	  82.800	    63.000	    30.600
  66.500	  86.400	    66.800	    30.600
  66.500	  90.000	    70.500	    30.600
  66.500	  93.600	    77.800	    30.600
  66.500	  97.200	    73.700	    30.600
  66.500	 100.800	    72.400	    30.600
  66.500	 104.400	    73.600	    30.600
  66.500	 108.000	    68.400	    30.600
  66.500	 111.600	    71.600	    30.600
  66.500	 115.200	    60.600	    30.600
  66.500	 118.800	    69.600	    30.600
  66.500	 122.400	    64.100	    30.600
  66.500	 126.000	    67.500	    30.600
  66.500	 129.600	    61.000	    30.600
  66.500	 133.200	    60.300	    30.600
  66.500	 136.800	    60.700	    30.600
  66.500	 140.400	    64.600	    30.600
  66.500	 144.000	    60.800	    30.600
  66.500	 147.600	    62.700	    30.600
  66.500	 151.200	    58.900	    30.600
  66.500	 154.800	    57.500	    30.600
  66.500	 158.400	    54.100	    30.600
  66.500	 162.000	    56.200	    30.600
  66.500	 165.600	    53.600	    30.600
  66.500	 169.200	    53.800	    30.600
  66.500	 172.800	    54.300	    30.600
  66.500	 176.400	    52.800	    30.600
  66.500	 180.000	    50.500	    30.600
  66.500	 183.600	    49.400	    30.600
  66.500	 187.200	    55.100	    30.600
  66.500	 190.800	    53.100	    30.600
  66.500	 194.400	    55.700	    30.600
  66.500	 198.000	    54.000	    30.600
  66.500	 201.600	    55.300	    30.600
  66.500	 205.200	    53.200	    30.600
  66.500	 208.800	    52.800	    30.600
  66.500	 212.400	    60.700	    30.600
  66.500	 216.000	    62.400	    30.600
  66.500	 219.600	    60.800	    30.600
  66.500	 223.200	    60.200	    30.600
  66.500	 226.800	    61.300	    30.600
  66.500	 230.400	    63.700	    30.600
  66.500	 234.000	    59.400	    30.600
  66.500	 237.600	    65.500	    30.600
  66.500	 241.200	    63.300	    30.600
  66.500	 244.800	    71.600	    30.600
  66.500	 248.400	    69.000	    30.600
  66.500	 252.000	    73.100	    30.600
  66.500	 255.600	    72.400	    30.600
  66.500	 259.200	    71.100	    30.600
  66.500	 262.800	    74.600	    30.600
  66.500	 266.400	    77.000	    30.600
  66.500	 270.000	    81.300	    30.600
  66.500	 273.600	    74.900	    30.600
  66.500	 277.200	    76.800	    30.600
  66.500	 280.800	    79.200	    30.600
  66.500	 284.400	    82.900	    30.600
  66.500	 288.000	    78.700	    30.600
  66.500	 291.600	    79.100	    30.600
  66.500	 295.200	    86.600	    30.600
  66.500	 298.800	    81.400	    30.600
  66.500	 302.400	    88.500	    30.600
  66.500	 306.000	    85.900	    30.600
  66.500	 309.600	    90.200	    30.600
  66.500	 313.200	    90.600	    30.600
  66.500	 316.800	    93.700	    30.600
  66.500	 320.400	    92.000	    30.600
  66.500	 324.000	    88.500	    30.600
  66.500	 327.600	    82.400	    30.600
  66.500	 331.200	    78.300	    30.600
  66.500	 334.800	    77.000	    30.600
  66.500	 338.400	    75.200	    30.600
  66.500	 342.000	    71.800	    30.600
  66.500	 345.600	    74.400	    30.600
  66.500	 349.200	    66.500	    30.600
  66.500	 352.800	    70.300	    30.600
  66.500	 356.400	    66.100	    30.600
  66.500	 360.000	    62.300	    30.600
  70.000	   0.000	    54.400	    26.000
  70.000	   3.600	    50.100	    26.000
  70.000	   7.200	    49.700	    26.000
  70.000	  10.800	    51.400	    26.000
  70.000	  14.400	    48.800	    26.000
  70.000	  18.000	    46.000	    26.000
  70.000	  21.600	    46.700	    26.000
  70.000	  25.200	    44.700	    26.000
  70.000	  28.800	    44.400	    26.000
  70.000	  32.400	    45.100	    26.000
  70.000	  36.000	    43.400	    26.000
  70.000	  39.600	    40.800	    26.000
  70.000	  43.200	    42.500	    26.000
  70.000	  46.800	    40.900	    26.000
  70.000	  50.400	    46.500	    26.000
  70.000	  54.000	    50.100	    26.000
  70.000	  57.600	    51.700	    26.000
  70.000	  61.200	    51.400	    26.000
  70.000	  64.800	    47.600	    26.000
  70.000	  68.400	    55.100	    26.000
  70.000	  72.000	    51.900	    26.000
  70.000	  75.600	    52.900	    26.000
  70.000	  79.200	    54.100	    26.000
  70.000	  82.800	    57.400	    26.000
  70.000	  86.400	    56.000	    26.000
  70.000	  90.000	    61.900	    26.000
  70.000	  93.600	    72.400	    26.000
  70.000	  97.200	    68.000	    26.000
  70.000	 100.800	    67.500	    26.000
  70.000	 104.400	    64.900	    26.000
  70.000	 108.000	    67.800	    26.000
  70.000	 111.600	    62.700	    26.000
  70.000	 115.200	    62.200	    26.000
  70.000	 118.800	    61.100	    26.000
  70.000	 122.400	    60.700	    26.000
  70.000	 126.000	    58.600	    26.000
  70.000	 129.600	    51.200	    26.000
  70.000	 133.200	    52.900	    26.000
  70.000	 136.800	    54.600	    26.000
  70.000	 140.400	    52.800	    26.000
  70.000	 144.000	    54.000	    26.000
  70.000	 147.600	    48.300	    26.000
  70.000	 151.200	    50.900	    26.000
  70.000	 154.800	    48.300	    26.000
  70.000	 158.400	    41.600	    26.000
  70.000	 162.000	    44.600	    26.000
  70.000	 165.600	    42.600	    26.000
  70.000	 169.200	    41.000	    26.000
  70.000	 172.800	    43.500	    26.000
  70.000	 176.400	    45.300	    26.000
  70.000	 180.000	    42.500	    26.000
  70.000	 183.600	    40.700	    26.000
  70.000	 187.200	    43.400	    26.000
  70.000	 190.800	    41.800	    26.000
  70.000	 194.400	    44.200	    26.000
  70.000	 198.000	    42.900	    26.000
  70.000	 201.600	    45.000	    26.000
  70.000	 205.200	    43.700	    26.000
  70.000	 208.800	    45.800	    26.000
  70.000	 212.400	    43.400	    26.000
  70.000	 216.000	    52.600	    26.000
  70.000	 219.600	    43.700	    26.000
  70.000	 223.200	    48.000	    26.000
  70.000	 226.800	    47.000	    26.000
  70.000	 230.400	    50.200	    26.000
  70.000	 234.000	    55.900	    26.000
  70.000	 237.600	    55.300	    26.000
  70.000	 241.200	    55.900	    26.000
  70.000	 244.800	    59.200	    26.000
  70.000	 248.400	    61.800	    26.000
  70.000	 252.000	    68.500	    26.000
  70.000	 255.600	    65.600	    26.000
  70.000	 259.200	    64.100	    26.000
  70.000	 262.800	    69.800	    26.000
  70.000	 266.400	    71.800	    26.000
  70.000	 270.000	    70.000	    26.000
  70.000	 273.600	    68.800	    26.000
  70.000	 277.200	    70.400	    26.000
  70.000	 280.800	    74.500	    26.000
  70.000	 284.400	    74.300	    26.000
  70.000	 288.000	    70.700	    26.000
  70.000	 291.600	    69.700	    26.000
  70.000	 295.200	    78.900	    26.000
  70.000	 298.800	    75.800	    26.000
  70.000	 302.400	    81.300	    26.000
  70.000	 306.000	    81.400	    26.000
  70.000	 309.600	    79.700	    26.000
  70.000	 313.200	    82.900	    26.000
  70.000	 316.800	    81.400	    26.000
  70.000	 320.400	    77.900	    26.000
  70.000	 324.000	    71.200	    26.000
  70.000	 327.600	    64.900	    26.000
  70.000	 331.200	    66.900	    26.000
  70.000	 334.800	    64.800	    26.000
  70.000	 338.400	    66.000	    26.000
  70.000	 342.000	    63.700	    26.000
  70.000	 345.600	    57.700	    26.000
  70.000	 349.200	    61.300	    26.000
  70.000	 352.800	    54.300	    26.000
  70.000	 356.400	    49.200	    26.000
  70.000	 360.000	    55.200	    26.000
