Anorthit An25   -> 130
     alpha      beta intensity 
    90.000   181.762         2 
    90.000   174.562         7 
    90.000   167.362        -2 
    90.000   160.162        -2 
    90.000   152.962         8 
    90.000   145.762        -2 
    90.000   138.562         1 
    90.000   131.362         4 
    90.000   124.162        -2 
    90.000   116.962         3 
    90.000   109.762        10 
    90.000   102.562         3 
    90.000    95.362        14 
    90.000    88.162         2 
    90.000    80.962        -1 
    90.000    73.762         3 
    90.000    66.562         4 
    90.000    59.362         7 
    90.000    52.162        -1 
    90.000    44.962        -1 
    90.000    37.762         5 
    90.000    30.562         3 
    90.000    23.362        10 
    90.000    16.162         1 
    90.000     8.962         2 
    90.000     1.762         2 
    90.000   354.562        12 
    90.000   347.362        -4 
    90.000   340.162        11 
    90.000   332.962        -3 
    90.000   325.762        14 
    90.000   318.562        10 
    90.000   311.362         7 
    90.000   304.162         8 
    90.000   296.962         5 
    90.000   289.762         6 
    90.000   282.562        -1 
    90.000   275.362        17 
    90.000   268.162        -0 
    90.000   260.962         6 
    90.000   253.762         8 
    90.000   246.562        -0 
    90.000   239.362         5 
    90.000   232.162         3 
    90.000   224.962         9 
    90.000   217.762         4 
    90.000   210.562        -0 
    90.000   203.362         2 
    90.000   196.162         3 
    90.000   188.962         3 
    82.803   181.776         5 
    82.803   174.576         1 
    82.803   167.376         6 
    82.803   160.176        10 
    82.803   152.976        10 
    82.803   145.776         4 
    82.803   138.576         4 
    82.803   131.376        -0 
    82.803   124.176        -2 
    82.803   116.976        -3 
    82.803   109.776         6 
    82.803   102.576         1 
    82.803    95.376         4 
    82.803    88.176         5 
    82.803    80.976         7 
    82.803    73.776         8 
    82.803    66.576         3 
    82.803    59.376         3 
    82.803    52.176         1 
    82.803    44.976        10 
    82.803    37.776         7 
    82.803    30.576        -1 
    82.803    23.376         5 
    82.803    16.176         7 
    82.803     8.976         3 
    82.803     1.776         5 
    82.803   354.576         1 
    82.803   347.376         7 
    82.803   340.176        -4 
    82.803   332.976         3 
    82.803   325.776         4 
    82.803   318.576         4 
    82.803   311.376         6 
    82.803   304.176         1 
    82.803   296.976         5 
    82.803   289.776         2 
    82.803   282.576        -7 
    82.803   275.376         0 
    82.803   268.176        -1 
    82.803   260.976        12 
    82.803   253.776         8 
    82.803   246.576         2 
    82.803   239.376         3 
    82.803   232.176        -2 
    82.803   224.976        -2 
    82.803   217.776         6 
    82.803   210.576         4 
    82.803   203.376         0 
    82.803   196.176         9 
    82.803   188.976         8 
    75.607   181.819         0 
    75.607   174.619        12 
    75.607   167.419         6 
    75.607   160.219         3 
    75.607   153.019         2 
    75.607   145.819         9 
    75.607   138.619         6 
    75.607   131.419         7 
    75.607   124.219         3 
    75.607   117.019         5 
    75.607   109.819         6 
    75.607   102.619         5 
    75.607    95.419         1 
    75.607    88.219         4 
    75.607    81.019         3 
    75.607    73.819         3 
    75.607    66.619         6 
    75.607    59.419         3 
    75.607    52.219         3 
    75.607    45.019        10 
    75.607    37.819         4 
    75.607    30.619         3 
    75.607    23.419         6 
    75.607    16.219         2 
    75.607     9.019         7 
    75.607     1.819         8 
    75.607   354.619         0 
    75.607   347.419         7 
    75.607   340.219         6 
    75.607   333.019        11 
    75.607   325.819         2 
    75.607   318.619         6 
    75.607   311.419        -4 
    75.607   304.219         1 
    75.607   297.019         9 
    75.607   289.819        -0 
    75.607   282.619         6 
    75.607   275.419        15 
    75.607   268.219         3 
    75.607   261.019         4 
    75.607   253.819        -0 
    75.607   246.619        -3 
    75.607   239.419         8 
    75.607   232.219         4 
    75.607   225.019         3 
    75.607   217.819         9 
    75.607   210.619         7 
    75.607   203.419         3 
    75.607   196.219         6 
    75.607   189.019        11 
    68.411   181.895         4 
    68.411   174.395        -3 
    68.411   166.895        12 
    68.411   159.395         6 
    68.411   151.895         1 
    68.411   144.395         9 
    68.411   136.895         6 
    68.411   129.395         8 
    68.411   121.895         9 
    68.411   114.395         3 
    68.411   106.895         8 
    68.411    99.395         8 
    68.411    91.895         9 
    68.411    84.395         9 
    68.411    76.895         1 
    68.411    69.395         6 
    68.411    61.895        11 
    68.411    54.395         5 
    68.411    46.895        11 
    68.411    39.395        -4 
    68.411    31.895         7 
    68.411    24.395        10 
    68.411    16.895         3 
    68.411     9.395        -2 
    68.411     1.895        -1 
    68.411   354.395         1 
    68.411   346.895         3 
    68.411   339.395         5 
    68.411   331.895         5 
    68.411   324.395        -1 
    68.411   316.895         6 
    68.411   309.395         3 
    68.411   301.895         4 
    68.411   294.395         0 
    68.411   286.895         4 
    68.411   279.395        -3 
    68.411   271.895         5 
    68.411   264.395         3 
    68.411   256.895         7 
    68.411   249.395         5 
    68.411   241.895         3 
    68.411   234.395         1 
    68.411   226.895         8 
    68.411   219.395        -4 
    68.411   211.895         8 
    68.411   204.395         7 
    68.411   196.895         8 
    68.411   189.395         6 
    61.215   182.011         6 
    61.215   174.011         6 
    61.215   166.011        -0 
    61.215   158.011         6 
    61.215   150.011        11 
    61.215   142.011         4 
    61.215   134.011         6 
    61.215   126.011        10 
    61.215   118.011         7 
    61.215   110.011         9 
    61.215   102.011         9 
    61.215    94.011        10 
    61.215    86.011        -7 
    61.215    78.011        -3 
    61.215    70.011         2 
    61.215    62.011        15 
    61.215    54.011         5 
    61.215    46.011        -2 
    61.215    38.011         6 
    61.215    30.011         8 
    61.215    22.011         3 
    61.215    14.011         5 
    61.215     6.011        -5 
    61.215   358.011         1 
    61.215   350.011        -1 
    61.215   342.011        -6 
    61.215   334.011         6 
    61.215   326.011        -1 
    61.215   318.011         3 
    61.215   310.011         1 
    61.215   302.011         5 
    61.215   294.011        16 
    61.215   286.011         8 
    61.215   278.011         7 
    61.215   270.011        11 
    61.215   262.011         6 
    61.215   254.011         4 
    61.215   246.011        10 
    61.215   238.011         6 
    61.215   230.011        11 
    61.215   222.011        -3 
    61.215   214.011         8 
    61.215   206.011        12 
    61.215   198.011         7 
    61.215   190.011        12 
    54.020   182.178         6 
    54.020   174.178        12 
    54.020   166.178        14 
    54.020   158.178         5 
    54.020   150.178        11 
    54.020   142.178        11 
    54.020   134.178        13 
    54.020   126.178        10 
    54.020   118.178        13 
    54.020   110.178         4 
    54.020   102.178         4 
    54.020    94.178         7 
    54.020    86.178        -2 
    54.020    78.178         4 
    54.020    70.178        13 
    54.020    62.178        -1 
    54.020    54.178         1 
    54.020    46.178         3 
    54.020    38.178        15 
    54.020    30.178         0 
    54.020    22.178         2 
    54.020    14.178        -5 
    54.020     6.178        12 
    54.020   358.178        10 
    54.020   350.178         2 
    54.020   342.178         6 
    54.020   334.178         2 
    54.020   326.178         9 
    54.020   318.178         1 
    54.020   310.178        13 
    54.020   302.178        16 
    54.020   294.178         1 
    54.020   286.178         3 
    54.020   278.178         3 
    54.020   270.178        10 
    54.020   262.178         3 
    54.020   254.178         6 
    54.020   246.178         5 
    54.020   238.178         2 
    54.020   230.178         4 
    54.020   222.178         3 
    54.020   214.178         7 
    54.020   206.178         4 
    54.020   198.178         6 
    54.020   190.178        16 
    46.825   182.416         7 
    46.825   173.416         9 
    46.825   164.416        10 
    46.825   155.416        10 
    46.825   146.416        15 
    46.825   137.416         9 
    46.825   128.416        11 
    46.825   119.416         3 
    46.825   110.416        17 
    46.825   101.416        17 
    46.825    92.416        17 
    46.825    83.416        12 
    46.825    74.416        18 
    46.825    65.416         8 
    46.825    56.416         2 
    46.825    47.416        14 
    46.825    38.416        11 
    46.825    29.416        18 
    46.825    20.416        12 
    46.825    11.416        18 
    46.825     2.416        11 
    46.825   353.416         4 
    46.825   344.416        16 
    46.825   335.416         9 
    46.825   326.416         9 
    46.825   317.416         0 
    46.825   308.416         8 
    46.825   299.416        13 
    46.825   290.416        10 
    46.825   281.416         9 
    46.825   272.416        20 
    46.825   263.416        15 
    46.825   254.416         8 
    46.825   245.416        11 
    46.825   236.416        11 
    46.825   227.416         9 
    46.825   218.416        14 
    46.825   209.416         2 
    46.825   200.416         3 
    46.825   191.416        23 
    39.633   182.763         6 
    39.633   172.763        15 
    39.633   162.763        16 
    39.633   152.763        18 
    39.633   142.763         1 
    39.633   132.763        21 
    39.633   122.763        16 
    39.633   112.763        18 
    39.633   102.763        12 
    39.633    92.763        14 
    39.633    82.763        14 
    39.633    72.763        14 
    39.633    62.763        13 
    39.633    52.763        15 
    39.633    42.763        14 
    39.633    32.763        10 
    39.633    22.763        15 
    39.633    12.763        16 
    39.633     2.763         8 
    39.633   352.763        16 
    39.633   342.763         9 
    39.633   332.763         3 
    39.633   322.763        16 
    39.633   312.763        12 
    39.633   302.763        13 
    39.633   292.763        19 
    39.633   282.763         8 
    39.633   272.763         6 
    39.633   262.763        10 
    39.633   252.763        13 
    39.633   242.763        18 
    39.633   232.763         5 
    39.633   222.763        13 
    39.633   212.763        14 
    39.633   202.763        20 
    39.633   192.763        18 
    32.443   183.286        11 
    32.443   171.286        12 
    32.443   159.286        10 
    32.443   147.286        13 
    32.443   135.286        12 
    32.443   123.286        18 
    32.443   111.286        20 
    32.443    99.286        22 
    32.443    87.286        20 
    32.443    75.286        16 
    32.443    63.286        19 
    32.443    51.286         9 
    32.443    39.286        15 
    32.443    27.286        10 
    32.443    15.286        12 
    32.443     3.286        22 
    32.443   351.286        14 
    32.443   339.286        18 
    32.443   327.286         5 
    32.443   315.286         9 
    32.443   303.286        14 
    32.443   291.286        14 
    32.443   279.286        19 
    32.443   267.286        18 
    32.443   255.286        15 
    32.443   243.286        18 
    32.443   231.286         9 
    32.443   219.286        15 
    32.443   207.286        20 
    32.443   195.286        14 
    25.258   184.132        14 
    25.258   169.132        23 
    25.258   154.132        19 
    25.258   139.132        15 
    25.258   124.132        21 
    25.258   109.132        25 
    25.258    94.132        21 
    25.258    79.132        21 
    25.258    64.132        20 
    25.258    49.132        16 
    25.258    34.132        19 
    25.258    19.132        20 
    25.258     4.132        17 
    25.258   349.132        19 
    25.258   334.132        19 
    25.258   319.132        15 
    25.258   304.132        15 
    25.258   289.132        17 
    25.258   274.132         9 
    25.258   259.132        24 
    25.258   244.132        16 
    25.258   229.132        24 
    25.258   214.132        18 
    25.258   199.132        25 
    18.083   185.685        15 
    18.083   155.685        21 
    18.083   125.685        23 
    18.083    95.685        29 
    18.083    65.685        25 
    18.083    35.685        21 
    18.083     5.685        26 
    18.083   335.685        19 
    18.083   305.685        28 
    18.083   275.685        23 
    18.083   245.685        19 
    18.083   215.685        21 
    10.941   189.323        26 
    10.941   153.323        19 
    10.941   117.323        26 
    10.941    81.323        18 
    10.941    45.323        28 
    10.941     9.323        22 
    10.941   333.323        12 
    10.941   297.323        19 
    10.941   261.323        22 
    10.941   225.323        20 
     4.008   206.101        22 
     4.008   116.101        29 
     4.008    26.101        22 
     4.008   296.101        21 
     1.762   270.000        26 
     1.762   180.000        19 
     1.762    90.000        15 
     1.762     0.000        28 
    11.762   270.000        16 
    11.762   180.000        24 
    11.762    90.000        20 
    11.762     0.000        26 
     9.262   270.000        18 
     9.262   180.000        19 
     9.262    90.000        15 
     9.262     0.000        18 
     6.762   270.000        25 
     6.762   180.000        23 
     6.762    90.000        19 
     6.762     0.000        25 
     4.262   270.000        20 
     4.262   180.000        18 
     4.262    90.000        25 
     4.262     0.000        28 
     0.738    90.000        27 
     0.738     0.000        21 
     0.738   270.000        24 
     0.738   180.000        16 
     3.238    90.000        25 
     3.238     0.000        22 
     3.238   270.000        28 
     3.238   180.000        25 
     5.738    90.000        26 
     5.738     0.000        29 
     5.738   270.000        26 
     5.738   180.000        39 
     8.238    90.000        30 
     8.238     0.000        34 
     8.238   270.000        26 
     8.238   180.000        24 
