# 3DExplore ascii
# Sample name : 
# Comment : 
# Data Dimension: 2
# Location Dimension: 2
# System : 
# wavelength: 1.540593
# origin : 0.000000 0.000000 
# gonio origin : 0.000000 0.000000 0.000000 0.000000 
# min : 10.0000000 0.0000000 
# max : 90.0000000 360.0000000 
# axis type : "Alpha" "Beta" 
# gain : 0.500000
# number of data : 17 73 
10.0000000	0.0000000	286.3037	
15.0000000	0.0000000	373.4247	
20.0000000	0.0000000	468.0205	
25.0000000	0.0000000	576.5841	
30.0000000	0.0000000	661.5473	
35.0000000	0.0000000	780.4385	
40.0000000	0.0000000	871.0378	
45.0000000	0.0000000	1003.4552	
50.0000000	0.0000000	1268.5843	
55.0000000	0.0000000	1805.5413	
60.0000000	0.0000000	2602.4570	
65.0000000	0.0000000	3351.4745	
70.0000000	0.0000000	4132.4652	
75.0000000	0.0000000	6812.9685	
80.0000000	0.0000000	7920.4531	
85.0000000	0.0000000	5953.3704	
90.0000000	0.0000000	7654.4619	
10.0000000	5.0000000	290.4315	
15.0000000	5.0000000	371.3104	
20.0000000	5.0000000	449.3176	
25.0000000	5.0000000	557.2785	
30.0000000	5.0000000	636.7555	
35.0000000	5.0000000	761.4709	
40.0000000	5.0000000	841.6681	
45.0000000	5.0000000	957.2205	
50.0000000	5.0000000	1135.4971	
55.0000000	5.0000000	1515.0509	
60.0000000	5.0000000	2283.3240	
65.0000000	5.0000000	3258.8180	
70.0000000	5.0000000	3735.2445	
75.0000000	5.0000000	5753.3328	
80.0000000	5.0000000	8646.1083	
85.0000000	5.0000000	6066.1277	
90.0000000	5.0000000	7654.4619	
10.0000000	10.0000000	280.3704	
15.0000000	10.0000000	368.3313	
20.0000000	10.0000000	470.0427	
25.0000000	10.0000000	555.5557	
30.0000000	10.0000000	658.4185	
35.0000000	10.0000000	755.5082	
40.0000000	10.0000000	818.0086	
45.0000000	10.0000000	898.3134	
50.0000000	10.0000000	1068.3121	
55.0000000	10.0000000	1337.7980	
60.0000000	10.0000000	1973.1658	
65.0000000	10.0000000	3211.4764	
70.0000000	10.0000000	3742.4016	
75.0000000	10.0000000	5144.2566	
80.0000000	10.0000000	8668.2142	
85.0000000	10.0000000	6634.7468	
90.0000000	10.0000000	7654.4619	
10.0000000	15.0000000	278.6646	
15.0000000	15.0000000	368.8879	
20.0000000	15.0000000	465.8632	
25.0000000	15.0000000	585.3826	
30.0000000	15.0000000	687.1272	
35.0000000	15.0000000	745.3188	
40.0000000	15.0000000	854.8391	
45.0000000	15.0000000	898.5567	
50.0000000	15.0000000	1028.6408	
55.0000000	15.0000000	1196.5912	
60.0000000	15.0000000	1718.3168	
65.0000000	15.0000000	2899.2468	
70.0000000	15.0000000	3760.6323	
75.0000000	15.0000000	4871.4351	
80.0000000	15.0000000	8359.3996	
85.0000000	15.0000000	7671.5552	
90.0000000	15.0000000	7654.4619	
10.0000000	20.0000000	284.0548	
15.0000000	20.0000000	392.4638	
20.0000000	20.0000000	501.1687	
25.0000000	20.0000000	594.2753	
30.0000000	20.0000000	646.3139	
35.0000000	20.0000000	733.8672	
40.0000000	20.0000000	835.5496	
45.0000000	20.0000000	879.3181	
50.0000000	20.0000000	1011.6325	
55.0000000	20.0000000	1139.1060	
60.0000000	20.0000000	1505.8017	
65.0000000	20.0000000	2507.2186	
70.0000000	20.0000000	3417.0855	
75.0000000	20.0000000	4564.7381	
80.0000000	20.0000000	7838.4368	
85.0000000	20.0000000	8239.7794	
90.0000000	20.0000000	7654.4619	
10.0000000	25.0000000	288.8856	
15.0000000	25.0000000	389.4634	
20.0000000	25.0000000	497.3913	
25.0000000	25.0000000	623.7326	
30.0000000	25.0000000	654.7259	
35.0000000	25.0000000	745.5775	
40.0000000	25.0000000	804.6194	
45.0000000	25.0000000	856.5193	
50.0000000	25.0000000	998.8670	
55.0000000	25.0000000	1203.7441	
60.0000000	25.0000000	1550.0619	
65.0000000	25.0000000	2482.8098	
70.0000000	25.0000000	3224.7525	
75.0000000	25.0000000	4305.3113	
80.0000000	25.0000000	7261.3739	
85.0000000	25.0000000	8340.4718	
90.0000000	25.0000000	7654.4619	
10.0000000	30.0000000	292.8938	
15.0000000	30.0000000	403.1436	
20.0000000	30.0000000	519.4807	
25.0000000	30.0000000	647.1504	
30.0000000	30.0000000	692.8162	
35.0000000	30.0000000	757.9983	
40.0000000	30.0000000	815.0532	
45.0000000	30.0000000	890.7685	
50.0000000	30.0000000	988.9812	
55.0000000	30.0000000	1172.8054	
60.0000000	30.0000000	1526.6549	
65.0000000	30.0000000	2506.0601	
70.0000000	30.0000000	3005.4372	
75.0000000	30.0000000	3824.9602	
80.0000000	30.0000000	6980.5587	
85.0000000	30.0000000	8332.9968	
90.0000000	30.0000000	7654.4619	
10.0000000	35.0000000	286.3121	
15.0000000	35.0000000	366.3329	
20.0000000	35.0000000	495.0405	
25.0000000	35.0000000	636.1594	
30.0000000	35.0000000	716.7268	
35.0000000	35.0000000	804.1821	
40.0000000	35.0000000	827.8325	
45.0000000	35.0000000	869.1346	
50.0000000	35.0000000	968.9714	
55.0000000	35.0000000	1129.5618	
60.0000000	35.0000000	1514.9773	
65.0000000	35.0000000	2546.8524	
70.0000000	35.0000000	3125.4752	
75.0000000	35.0000000	3589.1101	
80.0000000	35.0000000	6950.8114	
85.0000000	35.0000000	8675.8517	
90.0000000	35.0000000	7654.4619	
10.0000000	40.0000000	270.8149	
15.0000000	40.0000000	384.6696	
20.0000000	40.0000000	504.3548	
25.0000000	40.0000000	609.9935	
30.0000000	40.0000000	669.8252	
35.0000000	40.0000000	745.2644	
40.0000000	40.0000000	797.4227	
45.0000000	40.0000000	902.0299	
50.0000000	40.0000000	977.2158	
55.0000000	40.0000000	1081.5939	
60.0000000	40.0000000	1465.4422	
65.0000000	40.0000000	2568.2840	
70.0000000	40.0000000	3275.4007	
75.0000000	40.0000000	3576.3182	
80.0000000	40.0000000	6970.8204	
85.0000000	40.0000000	8735.8337	
90.0000000	40.0000000	7654.4619	
10.0000000	45.0000000	259.4513	
15.0000000	45.0000000	401.7506	
20.0000000	45.0000000	502.6527	
25.0000000	45.0000000	617.1069	
30.0000000	45.0000000	694.4017	
35.0000000	45.0000000	747.0739	
40.0000000	45.0000000	763.7889	
45.0000000	45.0000000	892.6622	
50.0000000	45.0000000	959.1163	
55.0000000	45.0000000	1036.4299	
60.0000000	45.0000000	1486.2863	
65.0000000	45.0000000	2548.2103	
70.0000000	45.0000000	3150.4360	
75.0000000	45.0000000	3538.1857	
80.0000000	45.0000000	7016.4304	
85.0000000	45.0000000	8646.1341	
90.0000000	45.0000000	7654.4619	
10.0000000	50.0000000	259.5267	
15.0000000	50.0000000	397.0772	
20.0000000	50.0000000	477.1846	
25.0000000	50.0000000	596.2818	
30.0000000	50.0000000	641.2828	
35.0000000	50.0000000	720.4354	
40.0000000	50.0000000	752.2882	
45.0000000	50.0000000	853.6406	
50.0000000	50.0000000	957.4681	
55.0000000	50.0000000	1062.4622	
60.0000000	50.0000000	1594.7922	
65.0000000	50.0000000	2393.8665	
70.0000000	50.0000000	2730.9141	
75.0000000	50.0000000	3420.7303	
80.0000000	50.0000000	7198.1444	
85.0000000	50.0000000	8319.4700	
90.0000000	50.0000000	7654.4619	
10.0000000	55.0000000	258.2390	
15.0000000	55.0000000	375.0240	
20.0000000	55.0000000	488.2182	
25.0000000	55.0000000	606.8408	
30.0000000	55.0000000	629.9153	
35.0000000	55.0000000	709.9624	
40.0000000	55.0000000	791.0041	
45.0000000	55.0000000	868.4535	
50.0000000	55.0000000	1003.1906	
55.0000000	55.0000000	1211.1825	
60.0000000	55.0000000	1678.9492	
65.0000000	55.0000000	2171.6442	
70.0000000	55.0000000	2426.5545	
75.0000000	55.0000000	3345.9016	
80.0000000	55.0000000	7306.4611	
85.0000000	55.0000000	8176.7969	
90.0000000	55.0000000	7654.4619	
10.0000000	60.0000000	253.2631	
15.0000000	60.0000000	379.5413	
20.0000000	60.0000000	464.6658	
25.0000000	60.0000000	528.4639	
30.0000000	60.0000000	624.3250	
35.0000000	60.0000000	724.4554	
40.0000000	60.0000000	821.4778	
45.0000000	60.0000000	922.0876	
50.0000000	60.0000000	1150.2868	
55.0000000	60.0000000	1532.4988	
60.0000000	60.0000000	1976.3989	
65.0000000	60.0000000	2144.5025	
70.0000000	60.0000000	2285.3692	
75.0000000	60.0000000	3474.7190	
80.0000000	60.0000000	7747.7518	
85.0000000	60.0000000	8647.5724	
90.0000000	60.0000000	7654.4619	
10.0000000	65.0000000	252.0674	
15.0000000	65.0000000	360.7690	
20.0000000	65.0000000	458.3580	
25.0000000	65.0000000	541.5340	
30.0000000	65.0000000	642.8725	
35.0000000	65.0000000	713.0322	
40.0000000	65.0000000	823.9264	
45.0000000	65.0000000	1009.9894	
50.0000000	65.0000000	1336.2116	
55.0000000	65.0000000	1886.1690	
60.0000000	65.0000000	2190.2710	
65.0000000	65.0000000	2103.7226	
70.0000000	65.0000000	2351.4939	
75.0000000	65.0000000	3973.6310	
80.0000000	65.0000000	8101.6019	
85.0000000	65.0000000	9273.1540	
90.0000000	65.0000000	7654.4619	
10.0000000	70.0000000	253.2092	
15.0000000	70.0000000	362.6924	
20.0000000	70.0000000	460.9963	
25.0000000	70.0000000	566.4541	
30.0000000	70.0000000	664.6333	
35.0000000	70.0000000	787.2290	
40.0000000	70.0000000	897.2577	
45.0000000	70.0000000	1113.1269	
50.0000000	70.0000000	1522.8123	
55.0000000	70.0000000	2237.3365	
60.0000000	70.0000000	2526.3327	
65.0000000	70.0000000	2383.5367	
70.0000000	70.0000000	2870.3043	
75.0000000	70.0000000	5077.4782	
80.0000000	70.0000000	8298.8596	
85.0000000	70.0000000	9550.6948	
90.0000000	70.0000000	7654.4619	
10.0000000	75.0000000	267.5788	
15.0000000	75.0000000	371.9991	
20.0000000	75.0000000	482.7589	
25.0000000	75.0000000	579.2987	
30.0000000	75.0000000	674.6657	
35.0000000	75.0000000	855.0517	
40.0000000	75.0000000	1011.7432	
45.0000000	75.0000000	1307.2780	
50.0000000	75.0000000	1737.8237	
55.0000000	75.0000000	2345.2969	
60.0000000	75.0000000	2812.5297	
65.0000000	75.0000000	2981.1210	
70.0000000	75.0000000	3950.0995	
75.0000000	75.0000000	6242.4909	
80.0000000	75.0000000	7737.2659	
85.0000000	75.0000000	9474.5175	
90.0000000	75.0000000	7654.4619	
10.0000000	80.0000000	272.6791	
15.0000000	80.0000000	371.0188	
20.0000000	80.0000000	476.3950	
25.0000000	80.0000000	566.8530	
30.0000000	80.0000000	704.1889	
35.0000000	80.0000000	915.5967	
40.0000000	80.0000000	1149.5761	
45.0000000	80.0000000	1503.1493	
50.0000000	80.0000000	1945.8705	
55.0000000	80.0000000	2469.5739	
60.0000000	80.0000000	3110.0120	
65.0000000	80.0000000	3634.2269	
70.0000000	80.0000000	5315.2251	
75.0000000	80.0000000	7446.1441	
80.0000000	80.0000000	7491.6259	
85.0000000	80.0000000	9249.0416	
90.0000000	80.0000000	7654.4619	
10.0000000	85.0000000	272.5400	
15.0000000	85.0000000	400.6840	
20.0000000	85.0000000	483.9030	
25.0000000	85.0000000	619.2887	
30.0000000	85.0000000	781.4925	
35.0000000	85.0000000	1018.2770	
40.0000000	85.0000000	1296.2034	
45.0000000	85.0000000	1608.3794	
50.0000000	85.0000000	2120.9137	
55.0000000	85.0000000	2638.8910	
60.0000000	85.0000000	3299.7406	
65.0000000	85.0000000	4309.9665	
70.0000000	85.0000000	7012.1523	
75.0000000	85.0000000	7933.8198	
80.0000000	85.0000000	7523.5066	
85.0000000	85.0000000	9250.3979	
90.0000000	85.0000000	7654.4619	
10.0000000	90.0000000	282.9690	
15.0000000	90.0000000	396.5608	
20.0000000	90.0000000	535.3764	
25.0000000	90.0000000	656.5015	
30.0000000	90.0000000	815.6737	
35.0000000	90.0000000	1030.4954	
40.0000000	90.0000000	1327.6413	
45.0000000	90.0000000	1681.2229	
50.0000000	90.0000000	2306.0634	
55.0000000	90.0000000	2928.3417	
60.0000000	90.0000000	3789.7269	
65.0000000	90.0000000	5526.5574	
70.0000000	90.0000000	9056.4227	
75.0000000	90.0000000	8015.0068	
80.0000000	90.0000000	7905.6620	
85.0000000	90.0000000	9235.3706	
90.0000000	90.0000000	7654.4619	
10.0000000	95.0000000	303.4151	
15.0000000	95.0000000	418.9990	
20.0000000	95.0000000	561.8300	
25.0000000	95.0000000	679.8162	
30.0000000	95.0000000	879.0815	
35.0000000	95.0000000	1109.1644	
40.0000000	95.0000000	1324.4726	
45.0000000	95.0000000	1713.6595	
50.0000000	95.0000000	2298.6255	
55.0000000	95.0000000	3122.1019	
60.0000000	95.0000000	4771.3569	
65.0000000	95.0000000	7955.1765	
70.0000000	95.0000000	10860.9544	
75.0000000	95.0000000	7664.1286	
80.0000000	95.0000000	8434.4211	
85.0000000	95.0000000	9386.4436	
90.0000000	95.0000000	7654.4619	
10.0000000	100.0000000	304.1074	
15.0000000	100.0000000	424.7339	
20.0000000	100.0000000	564.0257	
25.0000000	100.0000000	712.9333	
30.0000000	100.0000000	957.7112	
35.0000000	100.0000000	1199.1860	
40.0000000	100.0000000	1398.8708	
45.0000000	100.0000000	1836.7917	
50.0000000	100.0000000	2443.5647	
55.0000000	100.0000000	3585.5565	
60.0000000	100.0000000	6746.0785	
65.0000000	100.0000000	10436.6335	
70.0000000	100.0000000	10058.4157	
75.0000000	100.0000000	6939.0330	
80.0000000	100.0000000	8911.0789	
85.0000000	100.0000000	9249.6439	
90.0000000	100.0000000	7654.4619	
10.0000000	105.0000000	299.0018	
15.0000000	105.0000000	434.5431	
20.0000000	105.0000000	571.6199	
25.0000000	105.0000000	748.7840	
30.0000000	105.0000000	995.0107	
35.0000000	105.0000000	1289.6973	
40.0000000	105.0000000	1767.6357	
45.0000000	105.0000000	2571.3617	
50.0000000	105.0000000	3558.7143	
55.0000000	105.0000000	4793.6653	
60.0000000	105.0000000	8103.5878	
65.0000000	105.0000000	10576.3199	
70.0000000	105.0000000	8533.8498	
75.0000000	105.0000000	6455.5481	
80.0000000	105.0000000	9203.1619	
85.0000000	105.0000000	9152.1526	
90.0000000	105.0000000	7654.4619	
10.0000000	110.0000000	313.1870	
15.0000000	110.0000000	451.3606	
20.0000000	110.0000000	631.7022	
25.0000000	110.0000000	870.6698	
30.0000000	110.0000000	1203.2156	
35.0000000	110.0000000	1589.0244	
40.0000000	110.0000000	2243.1076	
45.0000000	110.0000000	3233.3877	
50.0000000	110.0000000	4365.4842	
55.0000000	110.0000000	5085.1626	
60.0000000	110.0000000	6460.3247	
65.0000000	110.0000000	7313.8005	
70.0000000	110.0000000	6148.2152	
75.0000000	110.0000000	6031.2894	
80.0000000	110.0000000	8727.2986	
85.0000000	110.0000000	8559.3335	
90.0000000	110.0000000	7654.4619	
10.0000000	115.0000000	330.0298	
15.0000000	115.0000000	458.4756	
20.0000000	115.0000000	625.7999	
25.0000000	115.0000000	863.5265	
30.0000000	115.0000000	1232.0200	
35.0000000	115.0000000	1794.7674	
40.0000000	115.0000000	2761.0211	
45.0000000	115.0000000	3731.4863	
50.0000000	115.0000000	4940.3494	
55.0000000	115.0000000	5898.8227	
60.0000000	115.0000000	6987.9644	
65.0000000	115.0000000	6951.4996	
70.0000000	115.0000000	5522.6890	
75.0000000	115.0000000	5614.2702	
80.0000000	115.0000000	7442.0120	
85.0000000	115.0000000	7776.3779	
90.0000000	115.0000000	7654.4619	
10.0000000	120.0000000	317.8745	
15.0000000	120.0000000	432.3635	
20.0000000	120.0000000	574.0199	
25.0000000	120.0000000	732.9847	
30.0000000	120.0000000	986.2969	
35.0000000	120.0000000	1406.3303	
40.0000000	120.0000000	2088.0029	
45.0000000	120.0000000	2787.8590	
50.0000000	120.0000000	3874.7928	
55.0000000	120.0000000	5958.3523	
60.0000000	120.0000000	9124.2074	
65.0000000	120.0000000	8803.3745	
70.0000000	120.0000000	6050.9265	
75.0000000	120.0000000	4844.9309	
80.0000000	120.0000000	6029.5855	
85.0000000	120.0000000	7247.5107	
90.0000000	120.0000000	7654.4619	
10.0000000	125.0000000	295.3044	
15.0000000	125.0000000	389.0135	
20.0000000	125.0000000	558.9944	
25.0000000	125.0000000	718.0384	
30.0000000	125.0000000	930.9328	
35.0000000	125.0000000	1208.8179	
40.0000000	125.0000000	1696.1255	
45.0000000	125.0000000	2176.6389	
50.0000000	125.0000000	2725.2662	
55.0000000	125.0000000	3542.2042	
60.0000000	125.0000000	4810.3841	
65.0000000	125.0000000	6002.5505	
70.0000000	125.0000000	5406.1475	
75.0000000	125.0000000	3538.3951	
80.0000000	125.0000000	4099.6113	
85.0000000	125.0000000	6322.9538	
90.0000000	125.0000000	7654.4619	
10.0000000	130.0000000	295.5488	
15.0000000	130.0000000	411.7353	
20.0000000	130.0000000	543.6583	
25.0000000	130.0000000	690.6492	
30.0000000	130.0000000	847.1247	
35.0000000	130.0000000	1049.8165	
40.0000000	130.0000000	1385.8870	
45.0000000	130.0000000	1739.8694	
50.0000000	130.0000000	2249.7375	
55.0000000	130.0000000	2603.4047	
60.0000000	130.0000000	3041.9231	
65.0000000	130.0000000	4246.5235	
70.0000000	130.0000000	4634.0402	
75.0000000	130.0000000	3071.0945	
80.0000000	130.0000000	3005.3224	
85.0000000	130.0000000	5462.8913	
90.0000000	130.0000000	7654.4619	
10.0000000	135.0000000	305.4323	
15.0000000	135.0000000	411.9331	
20.0000000	135.0000000	531.7204	
25.0000000	135.0000000	701.3718	
30.0000000	135.0000000	881.0599	
35.0000000	135.0000000	987.8009	
40.0000000	135.0000000	1206.1502	
45.0000000	135.0000000	1506.5431	
50.0000000	135.0000000	1858.7790	
55.0000000	135.0000000	2013.8664	
60.0000000	135.0000000	2390.2427	
65.0000000	135.0000000	3288.5585	
70.0000000	135.0000000	3787.6279	
75.0000000	135.0000000	2964.0781	
80.0000000	135.0000000	2506.4162	
85.0000000	135.0000000	4435.2731	
90.0000000	135.0000000	7654.4619	
10.0000000	140.0000000	301.7515	
15.0000000	140.0000000	410.6830	
20.0000000	140.0000000	544.1923	
25.0000000	140.0000000	688.9429	
30.0000000	140.0000000	840.3953	
35.0000000	140.0000000	948.5061	
40.0000000	140.0000000	1136.3587	
45.0000000	140.0000000	1311.7052	
50.0000000	140.0000000	1529.8442	
55.0000000	140.0000000	1691.5588	
60.0000000	140.0000000	1921.9988	
65.0000000	140.0000000	2674.4603	
70.0000000	140.0000000	3263.1785	
75.0000000	140.0000000	2736.2824	
80.0000000	140.0000000	2289.4500	
85.0000000	140.0000000	3536.0483	
90.0000000	140.0000000	7654.4619	
10.0000000	145.0000000	315.0071	
15.0000000	145.0000000	435.9027	
20.0000000	145.0000000	541.5160	
25.0000000	145.0000000	686.8186	
30.0000000	145.0000000	769.4878	
35.0000000	145.0000000	910.3736	
40.0000000	145.0000000	1097.7338	
45.0000000	145.0000000	1232.3458	
50.0000000	145.0000000	1368.2799	
55.0000000	145.0000000	1411.2313	
60.0000000	145.0000000	1545.2571	
65.0000000	145.0000000	2046.6343	
70.0000000	145.0000000	2752.2208	
75.0000000	145.0000000	2276.6781	
80.0000000	145.0000000	2180.7899	
85.0000000	145.0000000	3246.8524	
90.0000000	145.0000000	7654.4619	
10.0000000	150.0000000	333.4722	
15.0000000	150.0000000	437.9930	
20.0000000	150.0000000	542.5065	
25.0000000	150.0000000	690.6513	
30.0000000	150.0000000	794.2640	
35.0000000	150.0000000	901.8101	
40.0000000	150.0000000	1071.0780	
45.0000000	150.0000000	1126.1628	
50.0000000	150.0000000	1281.1283	
55.0000000	150.0000000	1297.2576	
60.0000000	150.0000000	1379.6135	
65.0000000	150.0000000	1728.1275	
70.0000000	150.0000000	2448.3682	
75.0000000	150.0000000	1997.6934	
80.0000000	150.0000000	2055.6091	
85.0000000	150.0000000	3132.8527	
90.0000000	150.0000000	7654.4619	
10.0000000	155.0000000	325.9322	
15.0000000	155.0000000	436.8464	
20.0000000	155.0000000	561.3585	
25.0000000	155.0000000	689.0925	
30.0000000	155.0000000	813.3316	
35.0000000	155.0000000	927.9998	
40.0000000	155.0000000	1065.7598	
45.0000000	155.0000000	1107.9690	
50.0000000	155.0000000	1225.5306	
55.0000000	155.0000000	1254.4469	
60.0000000	155.0000000	1365.2524	
65.0000000	155.0000000	1684.9107	
70.0000000	155.0000000	2206.6452	
75.0000000	155.0000000	1845.5127	
80.0000000	155.0000000	1921.2059	
85.0000000	155.0000000	3058.6378	
90.0000000	155.0000000	7654.4619	
10.0000000	160.0000000	316.7915	
15.0000000	160.0000000	429.3171	
20.0000000	160.0000000	579.5201	
25.0000000	160.0000000	695.8515	
30.0000000	160.0000000	816.4024	
35.0000000	160.0000000	955.3394	
40.0000000	160.0000000	1087.8998	
45.0000000	160.0000000	1168.0254	
50.0000000	160.0000000	1246.2194	
55.0000000	160.0000000	1242.8425	
60.0000000	160.0000000	1343.8790	
65.0000000	160.0000000	1706.5875	
70.0000000	160.0000000	2126.6059	
75.0000000	160.0000000	1674.9902	
80.0000000	160.0000000	1838.8778	
85.0000000	160.0000000	2960.3388	
90.0000000	160.0000000	7654.4619	
10.0000000	165.0000000	321.5840	
15.0000000	165.0000000	401.1305	
20.0000000	165.0000000	552.5752	
25.0000000	165.0000000	638.9759	
30.0000000	165.0000000	733.7675	
35.0000000	165.0000000	908.3292	
40.0000000	165.0000000	1101.4285	
45.0000000	165.0000000	1287.0380	
50.0000000	165.0000000	1530.6089	
55.0000000	165.0000000	1485.7345	
60.0000000	165.0000000	1424.3736	
65.0000000	165.0000000	1620.5788	
70.0000000	165.0000000	1995.8433	
75.0000000	165.0000000	1664.1342	
80.0000000	165.0000000	1758.8849	
85.0000000	165.0000000	2872.9569	
90.0000000	165.0000000	7654.4619	
10.0000000	170.0000000	322.3427	
15.0000000	170.0000000	415.4954	
20.0000000	170.0000000	524.1674	
25.0000000	170.0000000	652.2334	
30.0000000	170.0000000	733.1761	
35.0000000	170.0000000	859.5513	
40.0000000	170.0000000	1065.2396	
45.0000000	170.0000000	1316.5937	
50.0000000	170.0000000	1776.0018	
55.0000000	170.0000000	1873.3355	
60.0000000	170.0000000	1647.2655	
65.0000000	170.0000000	1483.1202	
70.0000000	170.0000000	1741.5817	
75.0000000	170.0000000	1647.6788	
80.0000000	170.0000000	1652.1833	
85.0000000	170.0000000	2691.9662	
90.0000000	170.0000000	7654.4619	
10.0000000	175.0000000	323.6121	
15.0000000	175.0000000	408.9771	
20.0000000	175.0000000	516.7899	
25.0000000	175.0000000	659.9154	
30.0000000	175.0000000	720.4395	
35.0000000	175.0000000	833.5028	
40.0000000	175.0000000	1001.7578	
45.0000000	175.0000000	1142.6713	
50.0000000	175.0000000	1751.4851	
55.0000000	175.0000000	2363.8035	
60.0000000	175.0000000	2212.5767	
65.0000000	175.0000000	1686.4931	
70.0000000	175.0000000	1509.1062	
75.0000000	175.0000000	1315.5074	
80.0000000	175.0000000	1710.1829	
85.0000000	175.0000000	2649.0308	
90.0000000	175.0000000	7654.4619	
10.0000000	180.0000000	321.1644	
15.0000000	180.0000000	434.5114	
20.0000000	180.0000000	532.9795	
25.0000000	180.0000000	636.5311	
30.0000000	180.0000000	712.5071	
35.0000000	180.0000000	811.8630	
40.0000000	180.0000000	955.2450	
45.0000000	180.0000000	1092.9025	
50.0000000	180.0000000	1442.7121	
55.0000000	180.0000000	2213.0919	
60.0000000	180.0000000	2517.4733	
65.0000000	180.0000000	1883.5723	
70.0000000	180.0000000	1347.5198	
75.0000000	180.0000000	927.7827	
80.0000000	180.0000000	1717.7624	
85.0000000	180.0000000	2602.3654	
90.0000000	180.0000000	7654.4619	
10.0000000	185.0000000	314.2433	
15.0000000	185.0000000	426.2467	
20.0000000	185.0000000	534.9784	
25.0000000	185.0000000	643.7265	
30.0000000	185.0000000	754.4844	
35.0000000	185.0000000	842.5192	
40.0000000	185.0000000	942.1429	
45.0000000	185.0000000	1054.7762	
50.0000000	185.0000000	1207.6411	
55.0000000	185.0000000	1800.6687	
60.0000000	185.0000000	2401.5568	
65.0000000	185.0000000	2018.7222	
70.0000000	185.0000000	1402.3173	
75.0000000	185.0000000	750.8840	
80.0000000	185.0000000	1543.1674	
85.0000000	185.0000000	2535.8646	
90.0000000	185.0000000	7654.4619	
10.0000000	190.0000000	318.1685	
15.0000000	190.0000000	435.8465	
20.0000000	190.0000000	565.3105	
25.0000000	190.0000000	671.0198	
30.0000000	190.0000000	766.7434	
35.0000000	190.0000000	885.4086	
40.0000000	190.0000000	983.7149	
45.0000000	190.0000000	1054.8138	
50.0000000	190.0000000	1157.0449	
55.0000000	190.0000000	1499.6703	
60.0000000	190.0000000	1956.1323	
65.0000000	190.0000000	1788.7980	
70.0000000	190.0000000	1358.1474	
75.0000000	190.0000000	583.8659	
80.0000000	190.0000000	1236.2572	
85.0000000	190.0000000	2655.9028	
90.0000000	190.0000000	7654.4619	
10.0000000	195.0000000	326.9969	
15.0000000	195.0000000	447.1774	
20.0000000	195.0000000	548.1108	
25.0000000	195.0000000	678.4283	
30.0000000	195.0000000	765.5234	
35.0000000	195.0000000	895.2789	
40.0000000	195.0000000	989.3705	
45.0000000	195.0000000	1063.2354	
50.0000000	195.0000000	1229.4188	
55.0000000	195.0000000	1315.6603	
60.0000000	195.0000000	1622.1458	
65.0000000	195.0000000	1480.1361	
70.0000000	195.0000000	1280.3559	
75.0000000	195.0000000	485.6700	
80.0000000	195.0000000	836.1964	
85.0000000	195.0000000	2479.2556	
90.0000000	195.0000000	7654.4619	
10.0000000	200.0000000	337.0411	
15.0000000	200.0000000	452.1653	
20.0000000	200.0000000	540.0450	
25.0000000	200.0000000	668.0432	
30.0000000	200.0000000	769.6453	
35.0000000	200.0000000	881.1191	
40.0000000	200.0000000	975.4039	
45.0000000	200.0000000	1058.5389	
50.0000000	200.0000000	1201.1342	
55.0000000	200.0000000	1259.2906	
60.0000000	200.0000000	1501.1725	
65.0000000	200.0000000	1246.1131	
70.0000000	200.0000000	1044.6075	
75.0000000	200.0000000	343.1378	
80.0000000	200.0000000	721.0158	
85.0000000	200.0000000	2489.7926	
90.0000000	200.0000000	7654.4619	
10.0000000	205.0000000	338.3705	
15.0000000	205.0000000	449.1709	
20.0000000	205.0000000	539.0318	
25.0000000	205.0000000	663.7858	
30.0000000	205.0000000	750.8961	
35.0000000	205.0000000	875.0036	
40.0000000	205.0000000	1024.4302	
45.0000000	205.0000000	1081.1483	
50.0000000	205.0000000	1190.7452	
55.0000000	205.0000000	1354.5099	
60.0000000	205.0000000	1566.4203	
65.0000000	205.0000000	1284.0763	
70.0000000	205.0000000	954.4948	
75.0000000	205.0000000	281.6708	
80.0000000	205.0000000	625.6915	
85.0000000	205.0000000	2313.6742	
90.0000000	205.0000000	7654.4619	
10.0000000	210.0000000	332.8742	
15.0000000	210.0000000	448.2375	
20.0000000	210.0000000	524.6000	
25.0000000	210.0000000	624.3354	
30.0000000	210.0000000	675.6391	
35.0000000	210.0000000	851.3620	
40.0000000	210.0000000	1010.8797	
45.0000000	210.0000000	1062.0224	
50.0000000	210.0000000	1159.0950	
55.0000000	210.0000000	1462.3864	
60.0000000	210.0000000	1746.2422	
65.0000000	210.0000000	1442.5800	
70.0000000	210.0000000	1009.4954	
75.0000000	210.0000000	285.5179	
80.0000000	210.0000000	542.4235	
85.0000000	210.0000000	2133.3789	
90.0000000	210.0000000	7654.4619	
10.0000000	215.0000000	326.0308	
15.0000000	215.0000000	458.1055	
20.0000000	215.0000000	548.3022	
25.0000000	215.0000000	642.8699	
30.0000000	215.0000000	727.7722	
35.0000000	215.0000000	873.8736	
40.0000000	215.0000000	1005.1026	
45.0000000	215.0000000	1057.1663	
50.0000000	215.0000000	1107.2709	
55.0000000	215.0000000	1459.1421	
60.0000000	215.0000000	1771.8947	
65.0000000	215.0000000	1502.1033	
70.0000000	215.0000000	1045.5612	
75.0000000	215.0000000	308.8563	
80.0000000	215.0000000	539.1777	
85.0000000	215.0000000	2132.0209	
90.0000000	215.0000000	7654.4619	
10.0000000	220.0000000	317.9461	
15.0000000	220.0000000	416.7290	
20.0000000	220.0000000	539.7072	
25.0000000	220.0000000	627.6477	
30.0000000	220.0000000	725.5314	
35.0000000	220.0000000	841.0184	
40.0000000	220.0000000	971.6781	
45.0000000	220.0000000	1065.9116	
50.0000000	220.0000000	1154.9207	
55.0000000	220.0000000	1471.6150	
60.0000000	220.0000000	1673.7991	
65.0000000	220.0000000	1403.8959	
70.0000000	220.0000000	1053.7486	
75.0000000	220.0000000	297.6144	
80.0000000	220.0000000	612.5502	
85.0000000	220.0000000	2069.3173	
90.0000000	220.0000000	7654.4619	
10.0000000	225.0000000	317.9762	
15.0000000	225.0000000	410.9922	
20.0000000	225.0000000	533.1905	
25.0000000	225.0000000	626.2593	
30.0000000	225.0000000	735.8992	
35.0000000	225.0000000	848.8464	
40.0000000	225.0000000	942.6159	
45.0000000	225.0000000	1050.8323	
50.0000000	225.0000000	1156.1175	
55.0000000	225.0000000	1387.5594	
60.0000000	225.0000000	1606.1952	
65.0000000	225.0000000	1321.6638	
70.0000000	225.0000000	931.0461	
75.0000000	225.0000000	207.9529	
80.0000000	225.0000000	732.1919	
85.0000000	225.0000000	2142.0101	
90.0000000	225.0000000	7654.4619	
10.0000000	230.0000000	325.6869	
15.0000000	230.0000000	412.5569	
20.0000000	230.0000000	511.8006	
25.0000000	230.0000000	620.3125	
30.0000000	230.0000000	727.2021	
35.0000000	230.0000000	868.7211	
40.0000000	230.0000000	938.5662	
45.0000000	230.0000000	1069.7561	
50.0000000	230.0000000	1237.3290	
55.0000000	230.0000000	1463.6380	
60.0000000	230.0000000	1634.4997	
65.0000000	230.0000000	1235.5322	
70.0000000	230.0000000	947.2381	
75.0000000	230.0000000	242.1132	
80.0000000	230.0000000	889.0326	
85.0000000	230.0000000	2262.6938	
90.0000000	230.0000000	7654.4619	
10.0000000	235.0000000	327.6586	
15.0000000	235.0000000	404.2990	
20.0000000	235.0000000	477.4539	
25.0000000	235.0000000	599.8321	
30.0000000	235.0000000	713.2323	
35.0000000	235.0000000	839.2657	
40.0000000	235.0000000	970.4218	
45.0000000	235.0000000	1083.6186	
50.0000000	235.0000000	1244.6087	
55.0000000	235.0000000	1561.5173	
60.0000000	235.0000000	1873.1620	
65.0000000	235.0000000	1330.9836	
70.0000000	235.0000000	923.3553	
75.0000000	235.0000000	248.0981	
80.0000000	235.0000000	1005.7574	
85.0000000	235.0000000	2482.0387	
90.0000000	235.0000000	7654.4619	
10.0000000	240.0000000	330.5328	
15.0000000	240.0000000	413.8992	
20.0000000	240.0000000	511.7453	
25.0000000	240.0000000	616.1393	
30.0000000	240.0000000	734.7836	
35.0000000	240.0000000	878.6877	
40.0000000	240.0000000	990.5950	
45.0000000	240.0000000	1103.3793	
50.0000000	240.0000000	1411.5027	
55.0000000	240.0000000	2019.0758	
60.0000000	240.0000000	2132.4344	
65.0000000	240.0000000	1532.0788	
70.0000000	240.0000000	1026.6258	
75.0000000	240.0000000	310.6339	
80.0000000	240.0000000	1100.5732	
85.0000000	240.0000000	2689.8716	
90.0000000	240.0000000	7654.4619	
10.0000000	245.0000000	335.7606	
15.0000000	245.0000000	407.5980	
20.0000000	245.0000000	538.7148	
25.0000000	245.0000000	661.5506	
30.0000000	245.0000000	748.8211	
35.0000000	245.0000000	847.3008	
40.0000000	245.0000000	986.4582	
45.0000000	245.0000000	1216.5559	
50.0000000	245.0000000	1666.5713	
55.0000000	245.0000000	2297.7363	
60.0000000	245.0000000	2358.5139	
65.0000000	245.0000000	1821.1368	
70.0000000	245.0000000	1120.1451	
75.0000000	245.0000000	396.1346	
80.0000000	245.0000000	1376.7659	
85.0000000	245.0000000	2913.4711	
90.0000000	245.0000000	7654.4619	
10.0000000	250.0000000	333.9516	
15.0000000	250.0000000	425.2485	
20.0000000	250.0000000	545.5152	
25.0000000	250.0000000	627.2178	
30.0000000	250.0000000	758.4429	
35.0000000	250.0000000	925.8232	
40.0000000	250.0000000	1093.5191	
45.0000000	250.0000000	1434.6145	
50.0000000	250.0000000	1910.2779	
55.0000000	250.0000000	2236.6691	
60.0000000	250.0000000	2075.4792	
65.0000000	250.0000000	1725.9183	
70.0000000	250.0000000	1250.1390	
75.0000000	250.0000000	597.3789	
80.0000000	250.0000000	1611.2803	
85.0000000	250.0000000	3105.1836	
90.0000000	250.0000000	7654.4619	
10.0000000	255.0000000	336.9519	
15.0000000	255.0000000	424.6310	
20.0000000	255.0000000	535.0123	
25.0000000	255.0000000	634.4797	
30.0000000	255.0000000	760.2531	
35.0000000	255.0000000	963.5879	
40.0000000	255.0000000	1186.4057	
45.0000000	255.0000000	1498.4764	
50.0000000	255.0000000	1809.4868	
55.0000000	255.0000000	1838.8860	
60.0000000	255.0000000	1625.8550	
65.0000000	255.0000000	1462.6449	
70.0000000	255.0000000	1341.7542	
75.0000000	255.0000000	949.6044	
80.0000000	255.0000000	2017.3986	
85.0000000	255.0000000	3295.0772	
90.0000000	255.0000000	7654.4619	
10.0000000	260.0000000	327.7972	
15.0000000	260.0000000	416.1629	
20.0000000	260.0000000	523.4099	
25.0000000	260.0000000	672.5997	
30.0000000	260.0000000	830.6563	
35.0000000	260.0000000	1039.5572	
40.0000000	260.0000000	1300.2882	
45.0000000	260.0000000	1501.7582	
50.0000000	260.0000000	1592.7125	
55.0000000	260.0000000	1492.9459	
60.0000000	260.0000000	1316.5469	
65.0000000	260.0000000	1264.1267	
70.0000000	260.0000000	1415.0463	
75.0000000	260.0000000	1314.7109	
80.0000000	260.0000000	2593.2384	
85.0000000	260.0000000	3507.0555	
90.0000000	260.0000000	7654.4619	
10.0000000	265.0000000	325.7978	
15.0000000	265.0000000	458.4950	
20.0000000	265.0000000	574.2909	
25.0000000	265.0000000	730.2155	
30.0000000	265.0000000	818.4881	
35.0000000	265.0000000	996.7710	
40.0000000	265.0000000	1234.9570	
45.0000000	265.0000000	1393.8778	
50.0000000	265.0000000	1435.2587	
55.0000000	265.0000000	1401.7993	
60.0000000	265.0000000	1208.4783	
65.0000000	265.0000000	1130.7797	
70.0000000	265.0000000	1348.6322	
75.0000000	265.0000000	1616.0543	
80.0000000	265.0000000	3243.9860	
85.0000000	265.0000000	3920.1234	
90.0000000	265.0000000	7654.4619	
10.0000000	270.0000000	337.3191	
15.0000000	270.0000000	443.2532	
20.0000000	270.0000000	551.9625	
25.0000000	270.0000000	687.2003	
30.0000000	270.0000000	777.6345	
35.0000000	270.0000000	919.6358	
40.0000000	270.0000000	1058.0429	
45.0000000	270.0000000	1187.6166	
50.0000000	270.0000000	1249.9632	
55.0000000	270.0000000	1287.1043	
60.0000000	270.0000000	1161.9855	
65.0000000	270.0000000	1116.5193	
70.0000000	270.0000000	1305.6768	
75.0000000	270.0000000	1987.7017	
80.0000000	270.0000000	3811.6028	
85.0000000	270.0000000	4418.3110	
90.0000000	270.0000000	7654.4619	
10.0000000	275.0000000	345.7122	
15.0000000	275.0000000	463.0081	
20.0000000	275.0000000	551.4351	
25.0000000	275.0000000	687.3882	
30.0000000	275.0000000	761.0339	
35.0000000	275.0000000	875.8221	
40.0000000	275.0000000	1024.2812	
45.0000000	275.0000000	1117.7310	
50.0000000	275.0000000	1177.1492	
55.0000000	275.0000000	1242.6026	
60.0000000	275.0000000	1145.2538	
65.0000000	275.0000000	1306.9632	
70.0000000	275.0000000	1545.1054	
75.0000000	275.0000000	2371.2258	
80.0000000	275.0000000	3964.6109	
85.0000000	275.0000000	4597.2218	
90.0000000	275.0000000	7654.4619	
10.0000000	280.0000000	342.5162	
15.0000000	280.0000000	455.8567	
20.0000000	280.0000000	556.9424	
25.0000000	280.0000000	671.1468	
30.0000000	280.0000000	779.3147	
35.0000000	280.0000000	906.2400	
40.0000000	280.0000000	1018.5412	
45.0000000	280.0000000	1162.8526	
50.0000000	280.0000000	1298.5239	
55.0000000	280.0000000	1345.9933	
60.0000000	280.0000000	1327.5540	
65.0000000	280.0000000	1445.1775	
70.0000000	280.0000000	1763.0598	
75.0000000	280.0000000	2370.0820	
80.0000000	280.0000000	3839.6317	
85.0000000	280.0000000	4739.9228	
90.0000000	280.0000000	7654.4619	
10.0000000	285.0000000	345.3435	
15.0000000	285.0000000	435.6230	
20.0000000	285.0000000	578.1888	
25.0000000	285.0000000	703.3339	
30.0000000	285.0000000	863.9868	
35.0000000	285.0000000	1047.3132	
40.0000000	285.0000000	1103.3834	
45.0000000	285.0000000	1225.4901	
50.0000000	285.0000000	1412.3224	
55.0000000	285.0000000	1643.6154	
60.0000000	285.0000000	1697.8254	
65.0000000	285.0000000	1718.3854	
70.0000000	285.0000000	1963.7821	
75.0000000	285.0000000	2183.5749	
80.0000000	285.0000000	3358.4458	
85.0000000	285.0000000	4740.8059	
90.0000000	285.0000000	7654.4619	
10.0000000	290.0000000	352.9775	
15.0000000	290.0000000	434.8872	
20.0000000	290.0000000	574.3160	
25.0000000	290.0000000	677.5410	
30.0000000	290.0000000	865.3156	
35.0000000	290.0000000	981.8498	
40.0000000	290.0000000	1086.9428	
45.0000000	290.0000000	1270.3734	
50.0000000	290.0000000	1590.8053	
55.0000000	290.0000000	2101.4967	
60.0000000	290.0000000	2000.7233	
65.0000000	290.0000000	2001.7980	
70.0000000	290.0000000	2163.3770	
75.0000000	290.0000000	2057.6177	
80.0000000	290.0000000	2819.1272	
85.0000000	290.0000000	4555.5524	
90.0000000	290.0000000	7654.4619	
10.0000000	295.0000000	346.2538	
15.0000000	295.0000000	428.4428	
20.0000000	295.0000000	564.1097	
25.0000000	295.0000000	691.3692	
30.0000000	295.0000000	847.2482	
35.0000000	295.0000000	934.1183	
40.0000000	295.0000000	1119.6961	
45.0000000	295.0000000	1401.9596	
50.0000000	295.0000000	1799.5842	
55.0000000	295.0000000	2296.2804	
60.0000000	295.0000000	2397.0695	
65.0000000	295.0000000	2441.4139	
70.0000000	295.0000000	2360.0103	
75.0000000	295.0000000	2126.9599	
80.0000000	295.0000000	2619.8169	
85.0000000	295.0000000	4316.9189	
90.0000000	295.0000000	7654.4619	
10.0000000	300.0000000	364.8784	
15.0000000	300.0000000	445.5184	
20.0000000	300.0000000	621.3385	
25.0000000	300.0000000	861.2407	
30.0000000	300.0000000	1041.2921	
35.0000000	300.0000000	1117.1429	
40.0000000	300.0000000	1216.7734	
45.0000000	300.0000000	1371.9096	
50.0000000	300.0000000	1707.3281	
55.0000000	300.0000000	2168.4596	
60.0000000	300.0000000	2553.9259	
65.0000000	300.0000000	2711.1075	
70.0000000	300.0000000	2579.5306	
75.0000000	300.0000000	2231.6215	
80.0000000	300.0000000	2578.1674	
85.0000000	300.0000000	4156.3008	
90.0000000	300.0000000	7654.4619	
10.0000000	305.0000000	439.1891	
15.0000000	305.0000000	762.7049	
20.0000000	305.0000000	1595.2899	
25.0000000	305.0000000	3138.6250	
30.0000000	305.0000000	4619.5196	
35.0000000	305.0000000	4134.8412	
40.0000000	305.0000000	3046.7314	
45.0000000	305.0000000	2238.3863	
50.0000000	305.0000000	2073.5335	
55.0000000	305.0000000	2305.1498	
60.0000000	305.0000000	2785.6408	
65.0000000	305.0000000	3076.4187	
70.0000000	305.0000000	3389.0965	
75.0000000	305.0000000	2701.0218	
80.0000000	305.0000000	2615.5403	
85.0000000	305.0000000	4055.5717	
90.0000000	305.0000000	7654.4619	
10.0000000	310.0000000	473.8474	
15.0000000	310.0000000	814.3894	
20.0000000	310.0000000	1356.3804	
25.0000000	310.0000000	2503.5856	
30.0000000	310.0000000	5099.4312	
35.0000000	310.0000000	8554.8522	
40.0000000	310.0000000	10459.8644	
45.0000000	310.0000000	7325.6487	
50.0000000	310.0000000	4472.4731	
55.0000000	310.0000000	3399.9488	
60.0000000	310.0000000	3443.2267	
65.0000000	310.0000000	3570.3503	
70.0000000	310.0000000	3901.2033	
75.0000000	310.0000000	3430.8971	
80.0000000	310.0000000	2939.1177	
85.0000000	310.0000000	4001.2103	
90.0000000	310.0000000	7654.4619	
10.0000000	315.0000000	388.0244	
15.0000000	315.0000000	475.7466	
20.0000000	315.0000000	642.9770	
25.0000000	315.0000000	853.9277	
30.0000000	315.0000000	1241.5826	
35.0000000	315.0000000	2013.4650	
40.0000000	315.0000000	3268.9504	
45.0000000	315.0000000	4089.2389	
50.0000000	315.0000000	4708.6563	
55.0000000	315.0000000	4832.7848	
60.0000000	315.0000000	4855.0446	
65.0000000	315.0000000	4903.9425	
70.0000000	315.0000000	5083.9791	
75.0000000	315.0000000	4362.3183	
80.0000000	315.0000000	3529.5423	
85.0000000	315.0000000	4062.8716	
90.0000000	315.0000000	7654.4619	
10.0000000	320.0000000	338.7773	
15.0000000	320.0000000	436.5867	
20.0000000	320.0000000	582.5668	
25.0000000	320.0000000	758.2228	
30.0000000	320.0000000	1038.5599	
35.0000000	320.0000000	1422.6328	
40.0000000	320.0000000	1949.8782	
45.0000000	320.0000000	2696.9707	
50.0000000	320.0000000	3872.5677	
55.0000000	320.0000000	5675.7954	
60.0000000	320.0000000	7106.3886	
65.0000000	320.0000000	7028.4818	
70.0000000	320.0000000	6600.8249	
75.0000000	320.0000000	5275.4369	
80.0000000	320.0000000	3917.4028	
85.0000000	320.0000000	4254.3654	
90.0000000	320.0000000	7654.4619	
10.0000000	325.0000000	340.6026	
15.0000000	325.0000000	439.9202	
20.0000000	325.0000000	577.6953	
25.0000000	325.0000000	755.6282	
30.0000000	325.0000000	1016.9642	
35.0000000	325.0000000	1466.0487	
40.0000000	325.0000000	1943.0409	
45.0000000	325.0000000	2515.5535	
50.0000000	325.0000000	3400.4155	
55.0000000	325.0000000	5450.8200	
60.0000000	325.0000000	9531.5746	
65.0000000	325.0000000	9923.9881	
70.0000000	325.0000000	7935.9910	
75.0000000	325.0000000	6087.8645	
80.0000000	325.0000000	4622.8478	
85.0000000	325.0000000	4411.1050	
90.0000000	325.0000000	7654.4619	
10.0000000	330.0000000	331.6305	
15.0000000	330.0000000	431.5677	
20.0000000	330.0000000	578.1244	
25.0000000	330.0000000	723.6257	
30.0000000	330.0000000	968.2215	
35.0000000	330.0000000	1373.3833	
40.0000000	330.0000000	1945.7088	
45.0000000	330.0000000	2581.0794	
50.0000000	330.0000000	3263.2586	
55.0000000	330.0000000	4312.3407	
60.0000000	330.0000000	7656.8781	
65.0000000	330.0000000	11084.2396	
70.0000000	330.0000000	9644.6911	
75.0000000	330.0000000	6895.5800	
80.0000000	330.0000000	5354.9562	
85.0000000	330.0000000	4624.8421	
90.0000000	330.0000000	7654.4619	
10.0000000	335.0000000	333.7420	
15.0000000	335.0000000	404.3034	
20.0000000	335.0000000	540.9595	
25.0000000	335.0000000	700.7490	
30.0000000	335.0000000	917.7307	
35.0000000	335.0000000	1223.4276	
40.0000000	335.0000000	1694.9358	
45.0000000	335.0000000	2324.6325	
50.0000000	335.0000000	3032.5145	
55.0000000	335.0000000	3779.7118	
60.0000000	335.0000000	4989.3322	
65.0000000	335.0000000	8201.4676	
70.0000000	335.0000000	10378.6677	
75.0000000	335.0000000	7729.9176	
80.0000000	335.0000000	5803.1289	
85.0000000	335.0000000	4758.0810	
90.0000000	335.0000000	7654.4619	
10.0000000	340.0000000	327.2745	
15.0000000	340.0000000	397.4335	
20.0000000	340.0000000	513.1641	
25.0000000	340.0000000	686.9361	
30.0000000	340.0000000	845.2406	
35.0000000	340.0000000	1081.3222	
40.0000000	340.0000000	1417.1361	
45.0000000	340.0000000	1901.0399	
50.0000000	340.0000000	2537.5919	
55.0000000	340.0000000	3315.4709	
60.0000000	340.0000000	4042.1559	
65.0000000	340.0000000	5479.0392	
70.0000000	340.0000000	9286.4324	
75.0000000	340.0000000	8458.1349	
80.0000000	340.0000000	6215.6039	
85.0000000	340.0000000	5108.4516	
90.0000000	340.0000000	7654.4619	
10.0000000	345.0000000	302.1528	
15.0000000	345.0000000	400.4948	
20.0000000	345.0000000	511.7016	
25.0000000	345.0000000	642.0494	
30.0000000	345.0000000	741.8673	
35.0000000	345.0000000	930.8619	
40.0000000	345.0000000	1175.9162	
45.0000000	345.0000000	1565.4362	
50.0000000	345.0000000	2110.5045	
55.0000000	345.0000000	2986.1027	
60.0000000	345.0000000	3821.5519	
65.0000000	345.0000000	4616.4355	
70.0000000	345.0000000	7379.5699	
75.0000000	345.0000000	8672.2888	
80.0000000	345.0000000	6795.9311	
85.0000000	345.0000000	5526.1156	
90.0000000	345.0000000	7654.4619	
10.0000000	350.0000000	285.9127	
15.0000000	350.0000000	391.3971	
20.0000000	350.0000000	514.8569	
25.0000000	350.0000000	600.8180	
30.0000000	350.0000000	719.2333	
35.0000000	350.0000000	895.2911	
40.0000000	350.0000000	1063.3912	
45.0000000	350.0000000	1324.7402	
50.0000000	350.0000000	1737.7799	
55.0000000	350.0000000	2508.4200	
60.0000000	350.0000000	3346.2538	
65.0000000	350.0000000	4136.8875	
70.0000000	350.0000000	5596.0120	
75.0000000	350.0000000	8143.3303	
80.0000000	350.0000000	7082.9403	
85.0000000	350.0000000	5736.2230	
90.0000000	350.0000000	7654.4619	
10.0000000	355.0000000	279.8637	
15.0000000	355.0000000	375.8320	
20.0000000	355.0000000	482.4588	
25.0000000	355.0000000	592.1285	
30.0000000	355.0000000	688.4688	
35.0000000	355.0000000	824.2581	
40.0000000	355.0000000	934.8110	
45.0000000	355.0000000	1077.7620	
50.0000000	355.0000000	1460.3365	
55.0000000	355.0000000	2179.7580	
60.0000000	355.0000000	2921.2588	
65.0000000	355.0000000	3638.9131	
70.0000000	355.0000000	4618.0219	
75.0000000	355.0000000	7689.5201	
80.0000000	355.0000000	7313.1262	
85.0000000	355.0000000	5876.2105	
90.0000000	355.0000000	7654.4619	
10.0000000	360.0000000	286.3037	
15.0000000	360.0000000	373.4247	
20.0000000	360.0000000	468.0205	
25.0000000	360.0000000	576.5841	
30.0000000	360.0000000	661.5473	
35.0000000	360.0000000	780.4385	
40.0000000	360.0000000	871.0378	
45.0000000	360.0000000	1003.4552	
50.0000000	360.0000000	1268.5843	
55.0000000	360.0000000	1805.5413	
60.0000000	360.0000000	2602.4570	
65.0000000	360.0000000	3351.4745	
70.0000000	360.0000000	4132.4652	
75.0000000	360.0000000	6812.9685	
80.0000000	360.0000000	7920.4531	
85.0000000	360.0000000	5953.3704	
90.0000000	360.0000000	7654.4619	
