*Dump of file: D:\UGENT\Linsey\0_5_R.rrw  '28-Apr-2010 13:49:10'
*Sample: SAMPLE='cu 0.5/100310'
*Reflexion ranges * Phi range    0.00 -  360.00 Step    5.00
*Pole figure: 111
*Khi =   0.00
Rescaled, averaged background at 2 theta  18.550 :    3763.200
Rescaled, averaged background at 2 theta  21.270 :    2934.800
 3809.60 3941.60 4005.60 4110.40 4192.80 4168.00 4225.20 4227.20
 4267.20 4148.00 3964.80 3915.20 3590.00 3500.80 3239.20 2683.20
 2306.80 1808.40 1796.00 1946.40 1983.20 1862.80 1953.20 1930.00
 1812.00 1865.20 2118.40 2703.20 2899.20 3379.20 3695.60 3729.60
 3956.80 4048.00 4011.60 4114.00 4153.20 4053.60 4150.40 4149.60
 4148.40 4155.20 4070.40 4094.00 4017.20 3919.60 3956.40 3772.00
 3678.80 3581.60 3278.00 3036.40 2796.40 2497.60 2012.00 1621.60
 1553.20 1518.80 1570.40 1611.20 1565.60 1617.20 1564.80 1496.00
 1651.20 1917.60 2467.60 2714.40 2989.20 3474.80 3505.20 3696.80
*Khi =   5.00
Rescaled, averaged background at 2 theta  18.550 :    3587.600
Rescaled, averaged background at 2 theta  21.270 :    3200.000
 3798.80 4026.40 4158.80 4113.20 4116.00 4240.40 4239.60 4189.20
 4131.60 4032.00 3952.80 3804.80 3587.60 3391.20 3123.60 2652.40
 2224.00 1785.20 1714.00 1886.00 1955.60 1874.40 1990.80 1879.60
 1747.60 1844.00 2027.20 2614.40 2854.80 3413.20 3628.40 3742.40
 4041.60 4092.40 4138.80 4192.80 4278.80 4326.00 4381.60 4344.80
 4349.20 4416.40 4370.80 4324.00 4086.40 4189.60 4036.40 3836.00
 3662.80 3569.20 3340.40 3204.00 2707.20 2495.60 1959.60 1590.80
 1450.00 1434.40 1501.20 1556.00 1545.20 1547.20 1550.00 1526.00
 1617.60 1912.00 2390.00 2633.20 3004.80 3315.20 3428.00 3746.40
*Khi =  10.00
Rescaled, averaged background at 2 theta  18.550 :    3617.200
Rescaled, averaged background at 2 theta  21.270 :    3082.800
 4050.80 4102.40 4400.40 4498.80 4582.40 4602.00 4544.40 4465.60
 4378.00 4227.60 4056.80 3930.80 3709.20 3370.40 3108.40 2644.00
 2124.40 1691.60 1587.60 1769.20 1865.20 1809.20 1824.40 1778.40
 1688.00 1774.00 1956.40 2496.00 2829.20 3376.00 3725.20 3843.20
 4029.20 4188.00 4383.60 4692.40 5017.60 5399.20 5614.80 5974.40
 6098.40 6054.00 5821.60 5753.60 5356.00 4967.20 4696.00 4426.00
 4159.60 3837.20 3532.00 3282.80 2835.20 2496.40 1909.20 1510.40
 1369.20 1360.40 1382.40 1392.80 1402.40 1438.80 1429.20 1368.80
 1544.00 1835.60 2372.00 2543.20 2976.40 3326.80 3550.80 3805.60
*Khi =  15.00
Rescaled, averaged background at 2 theta  18.550 :    3486.400
Rescaled, averaged background at 2 theta  21.270 :    3112.400
 5029.60 5818.00 6724.40 7536.80 7985.20 8094.80 7729.60 6892.40
 6172.40 5264.00 4666.00 4309.20 3827.20 3423.60 3030.40 2549.60
 2004.80 1631.20 1499.60 1656.00 1769.20 1701.20 1766.40 1812.00
 1627.20 1681.60 1814.40 2440.80 2817.60 3203.20 3682.40 3872.40
 4293.20 4700.80 5374.80 6448.40 7718.00 9512.0011184.4012422.40
13436.8013243.6012355.2011020.40 9275.60 7694.00 6627.20 5628.40
 4984.80 4348.00 3880.40 3336.80 2957.60 2445.20 1935.60 1414.40
 1300.40 1318.40 1347.60 1437.60 1377.20 1390.80 1367.20 1296.80
 1476.40 1690.40 2294.40 2606.00 2998.40 3508.00 3885.60 4316.80
*Khi =  20.00
Rescaled, averaged background at 2 theta  18.550 :    3485.600
Rescaled, averaged background at 2 theta  21.270 :    3222.000
 8115.6010875.6014094.0017055.2018945.6018981.6017369.2014500.40
11644.80 8842.40 6746.80 5309.20 4282.00 3590.00 3094.40 2537.60
 1990.80 1528.00 1433.60 1578.80 1742.40 1701.60 1810.40 1768.80
 1611.60 1651.60 1841.20 2342.40 2788.80 3221.20 3731.60 3940.00
 4613.60 5596.00 7189.20 9449.6012628.4016188.8019013.2021071.60
22446.4021772.4020366.4017852.8015042.0012449.60 9846.40 7784.40
 6199.60 5014.00 4093.60 3508.00 2902.40 2480.00 1826.40 1346.40
 1249.20 1270.80 1372.00 1456.00 1388.00 1375.20 1362.40 1256.80
 1367.60 1630.00 2286.00 2605.20 3212.80 3980.80 4750.40 6152.00
*Khi =  25.00
Rescaled, averaged background at 2 theta  18.550 :    3540.400
Rescaled, averaged background at 2 theta  21.270 :    3410.800
12742.0016612.0020010.4023790.4026138.4026361.2024696.4021596.80
18146.8014361.2010577.60 7699.20 5485.20 4088.00 3350.40 2662.80
 2096.00 1574.00 1355.20 1574.40 1711.20 1760.00 1902.80 1795.20
 1588.40 1629.60 1742.00 2361.20 2710.80 3369.20 3784.40 4279.20
 5248.40 6962.40 9673.6012511.2015056.4017576.0018929.2020084.40
20621.6019495.6018964.0017254.0015678.4014259.2012420.8010380.40
 8060.80 6074.80 4514.40 3677.20 2986.40 2418.40 1781.60 1288.40
 1212.80 1250.00 1383.20 1447.60 1451.20 1390.80 1249.20 1164.00
 1320.40 1652.40 2232.80 2660.00 3639.60 4748.80 6556.80 9300.40
*Khi =  30.00
Rescaled, averaged background at 2 theta  18.550 :    3577.200
Rescaled, averaged background at 2 theta  21.270 :    3490.800
14422.0016073.6016981.2018386.4019153.6019454.4019153.6018331.20
17579.6015852.4013842.0010897.60 7924.80 5338.40 3785.60 2852.00
 2194.80 1650.00 1392.80 1576.00 1737.20 1764.00 1912.80 1808.80
 1642.00 1675.20 1815.60 2431.20 2789.20 3458.40 4100.00 4948.40
 6521.20 8865.6011113.2012306.4012584.0012431.2012012.0011854.80
11862.8011455.6011100.4011133.6011123.6011604.4011662.8011148.00
 9748.00 7484.80 5307.60 3976.00 3090.40 2505.20 1859.20 1367.60
 1191.60 1178.00 1325.20 1409.60 1394.00 1353.60 1265.60 1178.00
 1320.00 1663.20 2381.20 3021.20 4405.20 6435.60 9150.0012089.60
*Khi =  35.00
Rescaled, averaged background at 2 theta  18.550 :    3542.800
Rescaled, averaged background at 2 theta  21.270 :    3451.200
12064.0011314.8010618.0010265.6010304.0010423.6010500.8010856.40
11672.0012561.2012913.6012325.2010636.00 7506.00 4912.80 3427.20
 2499.60 1834.80 1545.60 1668.80 1736.80 1743.60 1824.00 1749.20
 1669.20 1776.00 1876.80 2481.20 2999.20 3807.60 4785.20 6328.40
 8385.6010001.2010483.20 9645.20 8508.40 7892.40 7216.80 6890.80
 6849.60 6766.80 6883.20 7125.20 7444.40 8173.60 9074.40 9741.60
10230.00 9190.80 6828.80 4875.60 3552.40 2721.20 1904.40 1483.60
 1237.20 1250.80 1307.20 1324.00 1314.40 1406.00 1274.00 1176.80
 1420.00 1884.40 2724.80 3895.20 5985.20 8872.8011261.2012271.20
*Khi =  40.00
Rescaled, averaged background at 2 theta  18.550 :    3543.200
Rescaled, averaged background at 2 theta  21.270 :    3289.600
 8952.80 7551.60 6953.60 6606.40 6497.20 6531.60 6572.40 6937.60
 7588.80 8540.00 9983.6011356.8012024.0010646.80 7537.60 4847.20
 3192.00 2230.40 1726.40 1781.20 1804.40 1694.80 1734.80 1701.60
 1678.40 1786.80 2129.20 2774.80 3475.20 4794.40 6534.80 8502.00
 9706.80 9342.00 8325.20 6904.80 5990.80 5289.60 5096.40 4855.60
 4892.40 5005.60 4933.20 5156.40 5442.40 6229.60 6896.40 7751.60
 9141.20 9818.40 8768.40 7017.60 4700.80 3238.40 2261.20 1624.00
 1322.40 1192.40 1220.00 1264.80 1291.60 1348.40 1394.00 1382.80
 1639.20 2385.20 3762.80 5877.20 8976.0011124.4011366.0010416.80
*Khi =  45.00
Rescaled, averaged background at 2 theta  18.550 :    3540.800
Rescaled, averaged background at 2 theta  21.270 :    3114.400
 6140.40 5254.40 4943.20 4812.00 4805.20 4923.60 4978.80 5011.60
 5430.80 6084.00 7213.60 8799.2010672.8012011.2010944.40 8384.80
 5399.60 3308.80 2189.20 2012.40 1918.40 1744.40 1828.40 1897.20
 1790.00 2019.60 2500.80 3579.60 5100.40 7368.00 9052.00 9780.40
 8744.40 7396.40 6166.40 5266.80 4640.00 4336.00 4258.80 4242.40
 4204.40 4372.00 4207.20 4318.40 4462.80 4714.80 5353.60 6118.40
 7239.20 8788.80 9614.80 9493.20 7366.80 4827.20 3133.60 2055.60
 1472.40 1301.60 1330.00 1362.80 1294.80 1403.60 1550.00 1724.80
 2550.80 4136.40 6774.40 9709.6011430.4011267.20 9369.20 7494.40
*Khi =  50.00
Rescaled, averaged background at 2 theta  18.550 :    3525.600
Rescaled, averaged background at 2 theta  21.270 :    3124.400
 4356.80 4009.20 4186.80 4202.00 4250.00 4441.20 4256.80 4399.60
 4494.00 4667.20 5458.40 6586.80 8111.6010049.2012028.4012417.60
 9857.60 6321.20 3783.60 2776.80 2305.60 2007.60 2073.60 2086.40
 2119.20 2608.40 3811.60 6221.60 8914.0010482.00 9955.20 8366.00
 6819.60 5696.80 4839.60 4376.00 4238.00 4050.80 4118.00 4166.80
 4281.20 4280.80 4124.80 4078.40 4072.80 4123.20 4395.60 4762.00
 5574.00 6704.00 8145.6010057.6010206.00 8336.80 5568.40 3236.40
 1980.80 1590.80 1566.80 1558.40 1540.80 1664.00 2078.00 3113.60
 5485.20 8920.4011453.2012067.6010727.60 8856.00 6474.00 5159.60
*Khi =  55.00
Rescaled, averaged background at 2 theta  18.550 :    3494.000
Rescaled, averaged background at 2 theta  21.270 :    3082.000
 3833.20 3741.20 4047.20 4134.00 4204.40 4335.20 4261.60 4160.40
 4236.80 4160.80 4452.00 5085.60 5950.00 7008.00 8951.2011940.80
12657.6010857.60 7715.20 5106.40 3458.80 2623.60 2447.60 2511.20
 2949.20 4460.00 7368.8010970.8011629.60 9960.80 7597.20 5951.20
 5125.20 4710.00 4199.60 4133.60 4070.40 4029.60 4137.20 4218.40
 4242.00 4232.00 4207.20 4079.20 4036.00 3931.60 3958.00 4141.60
 4584.00 5146.40 5786.40 7589.20 9970.0010582.40 9681.60 6254.80
 3388.00 2273.20 1943.20 1820.00 1919.20 2551.60 4088.00 7322.00
10896.0013096.8011954.80 9716.80 7340.80 5728.80 4525.20 3915.60
*Khi =  60.00
Rescaled, averaged background at 2 theta  18.550 :    3501.200
Rescaled, averaged background at 2 theta  21.270 :    3128.400
 3626.80 3762.00 3987.60 4161.20 4228.00 4470.00 4339.20 4279.20
 4162.40 4177.60 4099.20 4374.00 4864.80 5306.40 5786.40 7550.40
 9851.2011235.2011315.20 9294.40 6813.20 4372.40 3288.80 3457.60
 4925.60 8339.6011488.4012169.20 9209.60 6440.80 5056.00 4541.60
 4548.40 4389.20 4121.60 4148.00 4130.80 4008.80 4109.60 4135.20
 4309.60 4192.40 4138.80 4040.80 4002.80 3842.80 3910.80 3792.40
 4017.60 4168.80 4353.60 5021.20 6692.80 9054.4011205.6010098.40
 6472.40 3771.20 2658.00 2467.60 3069.60 5180.40 8594.0012134.00
12717.6010761.60 7795.20 5585.60 4580.40 4280.80 3650.40 3581.60
*Khi =  65.00
Rescaled, averaged background at 2 theta  18.550 :    3408.400
Rescaled, averaged background at 2 theta  21.270 :    3085.200
 3619.20 3756.40 3922.40 4074.80 4168.40 4388.40 4262.40 4278.80
 4160.00 4190.40 4117.20 4165.20 4302.00 4451.20 4420.00 4558.40
 5374.00 7092.00 9415.6010897.2010648.40 7744.40 5293.20 5224.40
 8458.8011277.6010680.80 7835.20 4922.00 4126.00 4173.60 4148.40
 4276.80 4207.60 4054.40 3982.80 4090.40 4124.40 4120.80 4107.20
 4184.40 4138.40 4054.40 4058.80 3854.80 3909.20 3727.60 3727.20
 3735.60 3868.00 3818.80 3873.60 4196.40 5415.60 7969.6010132.40
 8927.60 6483.60 4211.60 3812.40 5266.40 8685.6011076.0010982.40
 8190.40 5357.20 4005.60 3487.60 3437.20 3584.40 3354.80 3386.40
*Khi =  70.00
Rescaled, averaged background at 2 theta  18.550 :    3226.800
Rescaled, averaged background at 2 theta  21.270 :    3026.800
 3467.20 3524.40 3798.40 3836.80 3938.00 4088.80 4051.20 4136.40
 4085.60 4112.40 3984.40 3882.00 4156.40 4114.80 3983.20 3710.80
 3648.80 3884.40 5052.40 7525.2010108.4010130.40 7940.40 7963.60
10553.20 9336.00 5940.40 3930.00 3250.40 3461.20 3804.40 3867.60
 4091.20 4104.00 4003.60 4030.00 4072.40 4085.20 4122.00 4035.20
 4028.00 4012.00 4002.40 3891.20 3783.20 3797.20 3705.60 3591.20
 3552.00 3582.00 3406.80 3405.20 3362.00 3578.80 4386.00 6360.40
 7868.80 8292.40 6346.00 5734.00 7313.60 8867.20 8227.20 5799.20
 3641.20 2678.80 2680.40 2874.40 3114.80 3316.40 3134.40 3282.00
*Pole figure: 200
*Khi =   0.00
Rescaled, averaged background at 2 theta  22.060 :    2873.600
Rescaled, averaged background at 2 theta  23.770 :    2392.400
 3096.80 3153.20 3278.00 3328.80 3374.40 3379.60 3331.20 3297.60
 3361.60 3245.20 3193.60 3065.20 2855.20 2703.20 2462.80 2156.80
 1968.80 1647.60 1617.60 1660.00 1694.80 1592.40 1729.20 1786.80
 1698.80 1749.60 1880.00 2202.80 2428.40 2778.80 3135.20 3000.80
 3269.60 3276.80 3347.20 3435.20 3405.60 3420.80 3497.60 3464.00
 3490.00 3503.20 3503.20 3476.80 3396.40 3345.20 3293.20 3171.20
 3123.20 3023.20 2794.00 2628.80 2433.20 2130.40 1730.40 1514.80
 1420.80 1534.80 1559.20 1554.00 1497.20 1524.00 1528.40 1413.60
 1612.80 1824.80 2062.00 2231.20 2459.60 2727.20 2870.80 2996.40
*Khi =   5.00
Rescaled, averaged background at 2 theta  22.060 :    2870.000
Rescaled, averaged background at 2 theta  23.770 :    2351.200
 3119.60 3139.20 3299.20 3231.20 3302.80 3427.60 3284.40 3271.60
 3326.80 3254.80 3168.40 3051.20 2837.60 2694.00 2474.80 2118.40
 1855.60 1634.40 1628.00 1584.00 1641.60 1557.20 1656.00 1742.80
 1644.00 1729.60 1819.60 2184.80 2378.80 2725.20 3045.60 3040.00
 3242.00 3312.00 3249.20 3453.60 3405.20 3389.60 3491.20 3406.00
 3421.20 3398.80 3419.60 3400.40 3438.00 3344.80 3236.00 3222.40
 3108.00 2897.60 2759.60 2556.40 2349.20 2046.40 1685.60 1438.80
 1396.40 1488.80 1501.60 1496.00 1504.40 1484.00 1532.00 1429.60
 1566.40 1678.00 2042.80 2186.40 2516.00 2761.20 2794.00 3006.00
*Khi =  10.00
Rescaled, averaged background at 2 theta  22.060 :    2833.200
Rescaled, averaged background at 2 theta  23.770 :    2390.000
 3033.20 3058.80 3181.20 3222.40 3202.00 3320.00 3265.60 3233.20
 3303.20 3183.60 3032.80 3090.80 2858.80 2676.40 2452.00 2088.40
 1754.40 1540.00 1482.80 1497.60 1573.20 1518.00 1657.60 1670.00
 1596.80 1651.60 1736.80 2089.60 2420.00 2716.00 3012.00 3009.60
 3183.20 3277.20 3294.00 3434.40 3420.00 3411.60 3472.80 3450.40
 3449.60 3450.80 3463.20 3404.40 3398.00 3300.00 3182.80 3134.80
 3070.00 2910.80 2687.20 2517.20 2244.00 1958.40 1522.40 1300.80
 1320.00 1413.60 1374.00 1454.40 1412.80 1411.20 1397.20 1375.20
 1471.60 1610.00 1963.60 2164.40 2406.40 2632.40 2802.00 2913.20
*Khi =  15.00
Rescaled, averaged background at 2 theta  22.060 :    2821.200
Rescaled, averaged background at 2 theta  23.770 :    2381.200
 2990.40 3109.60 3164.00 3256.80 3203.20 3397.60 3269.60 3291.60
 3271.60 3153.20 3160.80 2971.60 2760.00 2571.60 2427.60 1970.80
 1719.60 1451.60 1467.20 1511.60 1552.00 1498.40 1634.00 1583.20
 1556.40 1615.20 1683.20 2008.00 2279.60 2700.40 2928.00 3052.40
 3184.00 3354.00 3379.20 3473.20 3503.60 3521.20 3708.40 3602.00
 3691.60 3706.80 3653.20 3588.00 3457.20 3367.20 3304.80 3170.40
 3019.60 2943.20 2698.00 2499.20 2218.80 1893.20 1521.60 1267.60
 1205.60 1286.80 1356.00 1404.00 1295.20 1344.00 1314.40 1317.60
 1405.20 1564.40 1877.60 2059.20 2390.40 2593.20 2722.80 2986.40
*Khi =  20.00
Rescaled, averaged background at 2 theta  22.060 :    2944.400
Rescaled, averaged background at 2 theta  23.770 :    2394.400
 3159.60 3354.00 3514.00 3589.20 3635.60 3722.80 3652.40 3581.20
 3572.00 3368.80 3252.00 3114.00 2882.40 2642.40 2408.00 2030.40
 1728.40 1460.80 1383.20 1483.20 1467.20 1494.00 1629.20 1683.20
 1554.00 1555.20 1652.00 2019.20 2237.20 2664.40 2924.40 3080.80
 3289.60 3438.00 3491.60 3685.60 3883.60 4044.40 4150.40 4244.40
 4249.60 4401.60 4221.60 4073.20 3819.60 3762.00 3567.60 3462.80
 3213.20 3008.40 2842.00 2496.40 2288.00 1942.00 1504.40 1268.40
 1174.80 1275.20 1363.60 1392.00 1316.40 1299.20 1290.00 1305.20
 1346.40 1543.20 1841.20 2060.80 2411.20 2680.80 2793.60 3057.60
*Khi =  25.00
Rescaled, averaged background at 2 theta  22.060 :    3208.800
Rescaled, averaged background at 2 theta  23.770 :    2507.600
 3714.40 3988.00 4233.20 4419.20 4586.80 4654.40 4466.40 4493.20
 4228.00 4072.00 3844.40 3560.00 3214.40 2879.60 2578.80 2168.40
 1818.00 1524.00 1374.40 1474.00 1504.00 1500.00 1665.20 1712.80
 1636.80 1556.00 1666.80 2119.20 2366.00 2847.20 3163.20 3356.80
 3718.00 4090.00 4305.20 4706.00 4997.20 5300.00 5481.60 5765.20
 5748.40 5681.20 5585.60 5382.00 5204.00 4920.00 4538.00 4218.00
 3854.80 3524.80 3108.80 2752.00 2430.00 2039.60 1545.20 1272.40
 1203.60 1260.80 1395.20 1443.60 1367.20 1350.00 1295.20 1249.60
 1391.60 1609.20 1952.40 2243.60 2563.20 2976.40 3099.20 3562.80
*Khi =  30.00
Rescaled, averaged background at 2 theta  22.060 :    3517.200
Rescaled, averaged background at 2 theta  23.770 :    2737.600
 6060.40 6207.60 6501.20 6612.00 6792.00 6746.00 6669.20 6754.80
 6456.00 6444.80 5928.00 5346.40 4670.40 3972.80 3401.60 2661.60
 2281.60 1822.80 1608.40 1672.00 1554.40 1625.20 1758.00 1818.00
 1727.60 1708.80 1828.00 2260.40 2700.40 3323.60 3831.60 4517.60
 5321.60 5906.40 6571.20 6833.60 7143.20 7323.20 7359.20 7489.60
 7484.00 7508.40 7446.00 7403.60 7000.40 6882.00 6623.20 6118.40
 5628.40 4975.20 4282.80 3631.20 2941.60 2366.00 1864.80 1470.00
 1386.40 1383.20 1459.60 1521.20 1377.60 1420.00 1453.60 1397.20
 1530.80 1832.80 2341.20 2744.80 3457.20 4168.80 4741.60 5542.80
*Khi =  35.00
Rescaled, averaged background at 2 theta  22.060 :    3671.600
Rescaled, averaged background at 2 theta  23.770 :    2818.800
 8546.40 8372.80 8159.20 8078.00 8017.20 8003.60 8098.00 8242.00
 8420.80 8784.80 8688.00 8200.40 7655.20 6442.40 5435.60 4267.60
 3423.20 2582.80 2139.20 2067.20 1866.80 1871.20 1950.80 1926.00
 1912.80 2058.80 2326.00 2942.80 3630.00 4753.60 5845.20 7003.20
 7501.60 7573.60 7407.60 6947.60 6792.40 6616.40 6416.80 6455.20
 6500.00 6540.80 6607.60 6504.40 6514.40 6546.40 6746.80 6855.60
 7042.00 7034.80 6554.80 5727.60 4514.80 3596.40 2710.00 2060.00
 1691.60 1596.00 1581.60 1640.40 1568.00 1646.80 1653.60 1762.00
 1991.60 2664.00 3462.00 4628.40 5862.80 7078.40 7904.80 8368.40
*Khi =  40.00
Rescaled, averaged background at 2 theta  22.060 :    3389.200
Rescaled, averaged background at 2 theta  23.770 :    2660.400
 6833.60 6328.00 6060.00 5883.20 5818.40 5785.20 5950.80 6149.60
 6465.20 7071.60 7472.00 7698.80 8071.60 8117.60 7996.40 7454.80
 6141.60 4539.20 3324.80 2782.00 2499.20 2355.60 2292.80 2242.00
 2308.00 2598.00 3132.00 4364.40 5559.60 7214.80 7978.40 7629.20
 6820.80 5937.20 5136.80 4656.00 4366.00 4191.20 4178.80 4083.20
 4113.60 4271.20 4223.20 4160.40 4177.60 4382.00 4619.60 4914.80
 5430.40 6150.00 6918.00 7414.00 7015.60 5871.20 4522.80 3280.40
 2363.20 1969.60 1924.80 2035.20 2004.40 2168.80 2302.40 2636.00
 3362.40 4672.80 6159.20 7414.40 8052.00 8176.80 7632.40 7413.20
*Khi =  45.00
Rescaled, averaged background at 2 theta  22.060 :    3023.200
Rescaled, averaged background at 2 theta  23.770 :    2452.400
 3864.40 3661.60 3615.60 3608.00 3599.20 3740.40 3723.60 3807.60
 3922.40 4110.00 4357.60 4738.80 5233.20 6076.80 7183.60 8779.60
 9341.60 7366.80 4897.60 3638.40 3082.80 2720.80 2713.20 2642.00
 2652.80 2978.00 3837.20 5524.40 7409.20 8339.20 7129.60 5509.20
 4326.40 3849.20 3510.80 3414.80 3358.00 3266.80 3336.00 3373.60
 3301.60 3388.80 3342.80 3309.60 3295.60 3319.20 3274.40 3391.20
 3576.40 4075.60 4880.00 6418.00 8475.60 8996.40 7218.80 4749.20
 3318.40 2619.20 2417.20 2438.00 2591.60 2797.60 3235.20 4137.20
 5972.40 7981.20 8599.60 7444.40 6178.40 5252.40 4487.60 4052.00
*Khi =  50.00
Rescaled, averaged background at 2 theta  22.060 :    2929.600
Rescaled, averaged background at 2 theta  23.770 :    2394.800
 2851.20 2984.00 3072.40 3088.40 3074.00 3192.00 3133.60 3156.40
 3196.00 3150.40 3146.40 3258.40 3370.80 3642.00 4655.60 7201.60
10484.40 9362.80 5658.40 3699.20 2991.60 2670.00 2665.60 2566.40
 2478.00 2813.60 3697.60 5857.20 8305.20 7962.00 5360.80 3796.80
 3418.80 3348.00 3286.80 3279.20 3313.60 3195.60 3292.80 3322.40
 3249.20 3312.00 3252.80 3211.60 3211.20 3146.40 3126.40 3159.60
 3086.00 3116.00 3472.00 4640.40 8100.0010826.40 8933.60 5417.60
 3478.80 2620.80 2419.60 2539.60 2665.60 2933.60 3624.40 5163.60
 8282.8010184.80 7686.00 4788.00 3404.80 3029.20 2872.40 2863.60
*Khi =  55.00
Rescaled, averaged background at 2 theta  22.060 :    2899.200
Rescaled, averaged background at 2 theta  23.770 :    2452.000
 2791.20 2890.00 3075.60 3069.20 3185.60 3230.40 3228.00 3164.00
 3213.60 3062.80 3118.00 3103.20 2998.80 3052.40 3743.20 6567.60
10577.60 9350.40 5025.20 3024.00 2581.20 2335.20 2340.00 2239.20
 2210.00 2508.00 3321.20 5455.60 8479.20 8282.40 5496.00 3845.20
 3360.40 3261.60 3167.20 3261.60 3219.20 3256.40 3302.80 3335.60
 3396.80 3419.60 3352.80 3264.80 3208.40 3219.20 3073.60 3085.20
 2982.00 2996.00 3232.00 4412.40 8352.8011231.20 8568.40 4738.00
 2922.00 2315.20 2157.20 2230.80 2181.20 2348.00 3016.80 4733.60
 8742.0011166.80 6706.00 3152.40 2527.20 2494.40 2542.80 2741.60
*Khi =  60.00
Rescaled, averaged background at 2 theta  22.060 :    2942.400
Rescaled, averaged background at 2 theta  23.770 :    2454.400
 2814.00 2935.20 3121.60 3181.20 3252.80 3291.20 3248.40 3198.00
 3270.40 3220.40 3143.60 3163.20 3054.40 3214.00 4730.40 8567.20
10370.00 7402.00 3622.80 2451.20 2142.00 2039.20 2177.60 2164.40
 2102.40 2279.60 2836.00 4113.20 6775.20 8583.20 7363.20 5052.40
 3928.00 3512.00 3266.40 3343.60 3283.20 3327.60 3316.00 3380.00
 3366.40 3432.40 3294.80 3304.00 3220.40 3161.60 3102.00 3097.60
 3136.80 3194.40 3966.40 6167.60 9338.80 9549.60 6175.60 3548.80
 2379.60 1874.40 1859.60 1941.60 1815.20 1914.00 2407.60 3621.60
 7045.2011287.60 7996.80 3421.60 2404.80 2547.20 2520.40 2743.20
*Khi =  65.00
Rescaled, averaged background at 2 theta  22.060 :    2889.600
Rescaled, averaged background at 2 theta  23.770 :    2523.600
 2814.40 2941.60 3164.80 3154.80 3239.60 3335.20 3370.00 3317.20
 3236.00 3295.60 3254.40 3323.60 3390.40 4552.00 7428.8010024.00
 7748.80 4380.80 2390.40 2091.60 2077.60 1998.40 2129.20 2193.60
 2086.00 2225.60 2259.60 2734.40 4122.80 6539.20 7983.60 7329.20
 5493.60 4233.60 3494.80 3460.80 3382.80 3368.00 3444.40 3394.00
 3291.60 3335.60 3348.40 3290.80 3288.40 3251.60 3216.80 3162.80
 3406.80 4172.40 5718.80 7758.80 7705.20 5824.40 3552.00 2486.00
 1934.80 1713.20 1770.80 1760.40 1621.60 1692.80 1923.20 2397.20
 4162.40 8531.60 9989.60 6078.00 3261.60 2680.40 2532.40 2778.40
*Khi =  70.00
Rescaled, averaged background at 2 theta  22.060 :    2903.600
Rescaled, averaged background at 2 theta  23.770 :    2589.200
 2858.00 2887.20 3063.60 3194.40 3149.60 3350.00 3289.20 3277.60
 3306.80 3349.60 3388.40 3508.80 4375.20 6823.60 8744.80 7367.60
 4183.20 2542.80 1779.20 1728.40 1936.80 1983.60 2251.20 2303.20
 2034.40 2006.40 1823.60 2002.00 2500.40 3714.00 5796.00 7183.60
 6913.60 5515.20 4162.00 3620.80 3494.40 3358.00 3420.00 3328.80
 3320.40 3294.00 3287.20 3260.00 3236.00 3129.60 3221.60 3457.60
 4133.20 5648.40 6445.60 5972.40 4451.20 3056.00 2226.40 1752.80
 1643.60 1549.60 1655.20 1709.60 1524.00 1500.00 1518.40 1526.80
 1930.00 3962.40 7696.00 8120.40 5298.80 3424.00 2783.20 2704.00
*Pole figure: 220
*Khi =   0.00
Rescaled, averaged background at 2 theta  31.850 :    3043.200
Rescaled, averaged background at 2 theta  32.960 :    1532.800
 6620.80 6582.80 6374.00 6546.40 6343.20 6297.60 6386.80 6480.40
 6601.60 6620.80 6937.60 7118.00 7537.60 7607.60 7784.80 8072.80
 8253.20 8410.00 8590.40 8693.60 8590.80 8562.00 8373.20 7986.80
 8067.60 8174.40 8232.40 7897.20 7794.80 7298.00 7034.00 6997.20
 6632.00 6484.40 6274.80 6197.60 6041.60 6009.60 5882.00 5903.20
 5893.20 5798.40 5852.80 5885.60 5827.20 5938.80 5982.00 6030.00
 6220.80 6365.20 6422.00 6639.60 6973.60 7359.60 8039.20 8365.60
 8344.80 8232.40 8372.40 8612.40 8512.80 8367.60 8292.00 8114.80
 8086.80 7964.40 7653.20 7663.60 7344.00 7088.00 6968.80 6752.40
*Khi =   5.00
Rescaled, averaged background at 2 theta  31.850 :    2943.600
Rescaled, averaged background at 2 theta  32.960 :    1464.800
 6240.40 6032.00 5647.60 5742.80 5610.40 5494.00 5566.40 5680.80
 5748.00 5916.80 6196.00 6600.40 7074.40 7426.80 7603.60 7987.20
 8622.80 8852.00 9205.60 9247.60 9173.20 8478.40 7766.00 7130.40
 6606.00 6326.00 6083.20 5556.40 5072.00 4519.20 4169.60 4012.00
 3797.20 3596.80 3509.20 3433.60 3392.40 3326.80 3282.80 3251.60
 3276.80 3160.80 3220.80 3194.00 3253.60 3264.40 3262.40 3348.80
 3336.00 3416.80 3584.40 3780.00 4122.00 4576.80 5411.20 6280.40
 6846.40 7370.40 7973.60 8686.00 9115.60 9387.60 9338.00 9295.60
 9240.80 9114.80 8669.20 8383.60 7874.40 7212.00 6945.60 6515.20
*Khi =  10.00
Rescaled, averaged background at 2 theta  31.850 :    1850.800
Rescaled, averaged background at 2 theta  32.960 :    1316.800
 2760.80 2658.00 2596.00 2492.00 2494.00 2494.00 2449.60 2516.80
 2616.40 2648.00 2863.60 3045.60 3458.80 3795.60 4278.40 5010.80
 5893.60 6494.80 7023.20 7546.00 7620.00 7444.00 7026.40 6294.80
 5875.20 5437.20 4687.60 3911.60 3204.00 2773.60 2475.60 2344.40
 2298.00 2275.20 2248.00 2342.00 2338.80 2316.00 2380.40 2372.40
 2322.40 2366.80 2309.60 2344.40 2330.00 2302.80 2227.20 2226.80
 2191.20 2166.80 2095.20 2170.40 2454.40 2882.00 3620.40 4798.00
 5856.80 6629.20 7390.40 7920.00 8197.20 8177.20 8148.80 7900.80
 7274.40 6570.40 5561.60 4901.20 4161.20 3624.40 3184.40 2991.60
*Khi =  15.00
Rescaled, averaged background at 2 theta  31.850 :    1492.400
Rescaled, averaged background at 2 theta  32.960 :    1305.200
 1598.40 1702.00 1752.00 1741.60 1745.60 1815.20 1782.00 1724.80
 1769.20 1690.40 1642.80 1708.80 1602.00 1866.40 2150.00 2736.80
 3705.60 4786.00 5526.40 6433.60 7060.80 7262.80 7210.00 6737.60
 6201.20 5220.80 4020.40 2918.40 2181.20 1887.60 1836.00 1753.20
 1937.20 2014.80 2008.40 2134.40 2254.40 2138.80 2198.40 2249.20
 2230.80 2256.40 2256.80 2230.00 2248.00 2145.60 2056.80 2054.80
 1876.00 1797.20 1705.20 1607.60 1691.20 1977.60 2590.80 3854.40
 5152.80 6519.60 7540.00 8193.20 8336.00 8086.80 7508.00 6527.20
 5265.60 3993.20 2995.20 2251.20 1962.00 1718.00 1576.40 1653.60
*Khi =  20.00
Rescaled, averaged background at 2 theta  31.850 :    1379.600
Rescaled, averaged background at 2 theta  32.960 :    1265.200
 1474.00 1455.60 1590.40 1642.00 1612.00 1751.20 1642.40 1588.40
 1574.40 1467.20 1446.00 1397.20 1178.00 1194.80 1224.00 1330.00
 2036.00 2982.80 4302.80 5762.00 7444.00 8574.80 8858.40 8171.60
 6750.40 4929.60 3127.60 1970.80 1484.80 1402.80 1558.80 1621.60
 1796.00 1988.40 1917.60 2102.40 2198.00 2175.20 2265.60 2299.20
 2186.40 2339.60 2264.40 2168.00 2214.00 2148.80 1991.20 2020.80
 1856.40 1684.80 1607.20 1420.40 1282.80 1415.20 1756.00 2832.00
 4558.00 6582.40 8528.00 9749.20 9964.00 8749.60 7206.80 5202.40
 3391.60 2215.20 1478.00 1131.20 1127.20 1196.80 1221.20 1366.40
*Khi =  25.00
Rescaled, averaged background at 2 theta  31.850 :    1372.000
Rescaled, averaged background at 2 theta  32.960 :    1262.000
 1425.20 1460.80 1618.00 1606.80 1604.80 1762.80 1698.80 1557.20
 1621.20 1515.20 1393.20 1313.60 1094.80 1012.80  948.00  796.40
 1042.80 1618.40 2767.20 4835.60 7443.6010098.0011182.40 9890.80
 7074.00 4264.00 2251.20 1377.20 1111.60 1290.80 1545.60 1570.40
 1751.20 1947.60 1900.40 2173.60 2234.40 2156.00 2241.20 2232.40
 2222.80 2332.80 2275.60 2257.20 2228.40 2206.00 2063.60 2024.40
 1920.80 1729.60 1553.20 1358.80 1168.40 1108.40 1169.20 1954.00
 3650.40 6430.40 9590.8011615.6011300.00 8796.40 5888.00 3364.40
 1870.40 1109.20  850.00  786.40  878.40 1099.60 1140.40 1321.20
*Khi =  30.00
Rescaled, averaged background at 2 theta  31.850 :    1402.000
Rescaled, averaged background at 2 theta  32.960 :    1348.800
 1409.20 1504.40 1637.20 1653.20 1671.60 1730.40 1686.80 1652.00
 1579.60 1537.60 1482.00 1415.60 1175.20 1042.80  907.20  698.40
  814.80 1190.40 2195.20 4124.40 7119.60 9703.6010670.80 9618.80
 7022.80 4330.80 2224.00 1440.00 1177.20 1339.20 1586.00 1640.40
 1863.20 2023.20 2005.60 2190.00 2225.20 2209.20 2306.00 2330.80
 2289.60 2386.80 2322.00 2263.60 2351.20 2184.40 2135.60 2063.60
 1913.20 1831.60 1692.80 1378.80 1198.00 1116.80 1093.20 1833.60
 3500.40 6229.60 8916.0010535.6010378.40 7930.80 4722.40 2336.80
 1200.00  762.40  702.00  710.40  881.60 1075.60 1158.00 1348.40
*Khi =  35.00
Rescaled, averaged background at 2 theta  31.850 :    1464.400
Rescaled, averaged background at 2 theta  32.960 :    1383.200
 1538.40 1544.00 1729.20 1678.00 1742.00 1811.20 1697.20 1720.80
 1726.80 1579.20 1604.80 1557.20 1261.60 1157.20 1029.20  849.60
  934.80 1285.20 2548.00 4558.80 6250.00 6673.60 5965.60 6005.60
 6080.00 5138.40 3242.40 1958.80 1442.40 1539.20 1649.60 1703.60
 1979.60 2077.20 2062.40 2281.20 2225.60 2280.00 2403.60 2291.60
 2347.60 2472.80 2342.40 2342.40 2388.80 2256.00 2209.60 2198.00
 2007.60 1882.80 1760.00 1454.80 1401.60 1315.20 1476.40 2386.40
 4074.80 5504.40 5771.60 5920.40 6685.60 6508.80 4524.80 2447.60
 1213.60  782.00  686.00  758.00  974.00 1134.80 1261.60 1463.20
*Khi =  40.00
Rescaled, averaged background at 2 theta  31.850 :    1427.200
Rescaled, averaged background at 2 theta  32.960 :    1364.800
 1562.80 1622.00 1751.60 1753.60 1817.20 1883.20 1824.00 1756.40
 1779.20 1707.60 1662.80 1570.40 1348.80 1287.60 1126.40  973.20
 1074.00 1594.80 2991.60 4537.60 4622.00 3205.60 2339.60 2646.00
 3893.60 4825.60 4169.60 2579.20 1705.20 1648.40 1772.00 1860.40
 2052.80 2152.80 2122.80 2232.80 2276.80 2286.40 2425.60 2398.00
 2379.60 2450.80 2470.40 2392.00 2385.20 2208.00 2226.00 2181.20
 2008.40 1912.80 1853.20 1627.20 1557.20 1495.60 1888.40 3054.80
 3970.00 3724.80 2672.40 2334.00 3205.20 4527.20 4311.60 2700.00
 1455.20  887.60  794.80  863.20 1054.00 1232.40 1274.00 1508.80
*Khi =  45.00
Rescaled, averaged background at 2 theta  31.850 :    1472.800
Rescaled, averaged background at 2 theta  32.960 :    1334.800
 1543.60 1650.40 1815.60 1919.60 1986.00 2115.20 1924.00 1813.20
 1841.60 1694.80 1662.80 1595.60 1452.00 1357.20 1253.60 1100.00
 1206.00 1690.40 2895.60 3607.60 2699.60 1490.40 1073.20 1120.00
 1781.60 3180.80 3862.40 2852.00 1908.40 1713.20 1784.40 1886.40
 2107.60 2093.60 2118.80 2304.00 2334.80 2377.20 2513.20 2612.00
 2783.60 2992.40 2845.60 2610.80 2563.20 2325.60 2189.60 2226.40
 2068.00 1975.60 1906.00 1645.60 1537.20 1632.80 2164.00 3124.80
 3153.60 2097.20 1269.20 1086.40 1446.00 2584.40 3571.60 2727.20
 1534.40  980.00  867.20  894.80 1114.00 1290.00 1309.20 1460.00
*Khi =  50.00
Rescaled, averaged background at 2 theta  31.850 :    1627.200
Rescaled, averaged background at 2 theta  32.960 :    1420.400
 1710.80 1810.40 2095.20 2477.60 2964.00 2920.00 2420.80 2078.00
 1962.40 1872.40 1772.40 1719.20 1542.80 1414.00 1286.00 1176.00
 1246.40 1678.40 2502.40 2688.40 1592.40  846.80  686.00  758.00
  926.80 1851.60 3104.00 2725.20 1913.20 1737.60 1918.00 1886.40
 2140.40 2328.40 2236.40 2403.20 2514.40 2556.80 2950.40 3649.60
 4629.20 5061.20 4547.20 3467.20 2858.80 2554.40 2395.60 2314.00
 2228.40 2136.40 2005.20 1804.00 1677.20 1825.20 2243.60 2889.60
 2282.80 1158.40  731.20  713.60  823.20 1504.40 2537.20 2392.40
 1537.60  997.20  905.20  894.00 1075.60 1326.40 1352.80 1536.80
*Khi =  55.00
Rescaled, averaged background at 2 theta  31.850 :    1803.600
Rescaled, averaged background at 2 theta  32.960 :    1518.000
 2068.00 2359.60 3034.40 4956.40 6959.60 6524.00 4522.40 3054.40
 2536.80 2064.80 2014.40 1934.40 1660.40 1544.40 1422.40 1222.80
 1337.20 1532.40 2051.20 2045.20 1118.40  659.60  610.00  618.00
  688.40 1284.00 2495.60 2414.40 1890.00 1785.60 1876.00 1950.40
 2245.60 2405.20 2466.40 2750.00 2902.00 3272.40 4167.20 5981.20
 8064.40 8877.20 7642.40 5103.20 3617.60 3058.40 2761.60 2477.60
 2389.60 2167.60 2037.20 1859.60 1811.60 1894.40 2245.60 2594.00
 1645.60  798.40  563.20  548.80  604.40 1016.80 1937.60 2164.00
 1523.20  988.40  938.00  930.00 1198.40 1426.40 1588.00 1802.40
*Khi =  60.00
Rescaled, averaged background at 2 theta  31.850 :    2306.400
Rescaled, averaged background at 2 theta  32.960 :    1608.000
 2639.20 3271.60 4476.40 7388.0010958.4010425.60 7487.20 4606.40
 3401.60 2735.60 2480.40 2198.80 1993.20 1697.60 1581.60 1411.20
 1382.80 1520.40 1906.80 1797.20  992.40  580.80  575.20  593.20
  660.80 1133.60 2190.40 2235.20 1735.60 1809.20 1902.80 2046.80
 2341.60 2584.40 2770.00 3096.80 3380.40 3651.20 4548.00 5816.00
 7323.20 7739.20 6913.60 5091.20 4046.40 3506.00 3255.20 2895.20
 2540.00 2379.60 2200.40 1943.60 1838.40 1886.40 2240.80 2496.00
 1387.60  673.60  519.60  547.20  544.40  807.60 1635.20 2053.60
 1545.60 1097.60 1040.00 1053.20 1298.80 1679.60 1938.80 2218.40
*Khi =  65.00
Rescaled, averaged background at 2 theta  31.850 :    2807.200
Rescaled, averaged background at 2 theta  32.960 :    1752.400
 3187.60 3779.20 4553.20 6073.20 7612.00 7376.40 6220.80 4952.00
 4030.00 3391.60 2948.80 2630.40 2316.00 2008.00 1756.00 1527.20
 1438.00 1453.60 1839.20 1848.00 1057.60  679.20  646.40  641.20
  763.60 1278.00 2184.80 1987.20 1506.80 1709.60 1943.60 2138.00
 2596.00 2916.00 3271.60 3566.80 3618.00 3689.20 3790.80 3806.00
 4008.00 4102.00 4130.80 3997.20 3931.60 3785.20 3659.60 3336.80
 3001.60 2594.00 2298.40 2042.80 1940.80 1809.60 2096.80 2547.60
 1433.60  658.80  499.60  524.40  574.00  854.00 1708.00 2036.40
 1536.40 1160.00 1148.40 1182.80 1625.60 1965.60 2302.00 2712.40
*Khi =  70.00
Rescaled, averaged background at 2 theta  31.850 :    2992.800
Rescaled, averaged background at 2 theta  32.960 :    1910.000
 3416.80 3600.40 3699.60 3586.00 3654.80 3690.40 3574.40 3844.00
 3802.40 3715.60 3595.20 3388.80 3111.20 2603.20 2258.80 1761.60
 1591.20 1549.60 1782.80 1996.40 1334.00  860.00  825.60  736.40
  971.20 1722.80 2149.60 1688.00 1422.00 1660.80 2051.60 2490.80
 3210.80 3609.20 3646.00 3580.40 3327.20 3060.40 2960.80 2917.20
 2826.80 2862.40 2886.80 3049.60 3160.00 3371.20 3608.00 3632.80
 3459.60 3203.60 2694.40 2260.40 2072.00 1900.00 1950.40 2468.80
 1890.40  827.60  574.80  610.40  676.80 1102.80 1875.60 1910.80
 1352.40 1042.40 1135.60 1455.60 2018.00 2542.00 2988.40 3299.60
*Pole figure: 311
*Khi =   0.00
Rescaled, averaged background at 2 theta  37.500 :    1216.000
Rescaled, averaged background at 2 theta  38.730 :     906.400
 2467.60 2434.00 2526.00 2623.20 2564.80 2587.20 2533.20 2594.00
 2644.00 2561.60 2463.20 2468.80 2327.60 2274.40 2260.00 2170.40
 2146.00 2085.60 2081.20 2153.20 2109.20 2153.20 2219.20 2131.60
 2180.00 2136.40 2159.20 2216.00 2210.00 2396.40 2451.60 2536.40
 2688.00 2749.60 2780.00 2800.00 2854.80 2894.40 2906.40 2941.60
 2878.80 2946.80 2953.20 2995.20 2912.80 2914.40 2745.60 2817.60
 2742.80 2682.00 2637.60 2435.20 2362.00 2208.00 2086.80 2102.40
 2056.00 2043.60 2065.60 2074.80 2189.60 2208.80 2291.60 2262.80
 2243.20 2269.60 2194.00 2280.00 2274.80 2399.20 2431.60 2458.40
*Khi =   5.00
Rescaled, averaged background at 2 theta  37.500 :    1257.200
Rescaled, averaged background at 2 theta  38.730 :     908.800
 2714.80 2803.20 2756.80 2798.00 2809.20 2855.20 2829.60 2811.20
 2770.80 2734.80 2657.60 2686.00 2492.80 2418.40 2334.00 2195.20
 2114.40 2132.40 2112.80 2164.40 2215.20 2207.60 2234.00 2282.00
 2433.20 2504.40 2534.40 2728.80 2806.80 3034.00 3118.00 3245.20
 3330.80 3447.20 3363.60 3444.80 3438.40 3459.20 3526.40 3527.60
 3462.80 3500.80 3497.60 3513.60 3524.00 3450.40 3466.00 3410.40
 3306.40 3200.40 3185.60 3024.40 2847.20 2708.80 2524.40 2389.60
 2180.40 2184.40 2134.00 2078.80 2117.20 2071.20 2021.60 2094.80
 2152.80 2200.00 2190.00 2385.60 2404.80 2523.20 2507.20 2653.60
*Khi =  10.00
Rescaled, averaged background at 2 theta  37.500 :    1210.000
Rescaled, averaged background at 2 theta  38.730 :     901.200
 3267.60 3204.40 3144.00 3154.40 3094.80 3134.40 3112.40 3114.00
 3174.80 3141.60 3189.60 3216.80 3159.60 3094.00 3009.60 2946.00
 2727.60 2719.60 2635.60 2522.80 2524.40 2550.00 2510.40 2673.60
 2851.60 2879.20 2950.40 3089.60 3106.80 3053.20 3059.60 2976.00
 2950.00 2938.40 2829.60 3022.80 2910.80 2866.40 2911.60 2908.40
 2853.20 2922.00 2824.40 2932.00 2884.40 2888.80 2920.00 2822.40
 2931.60 2888.80 2932.00 2936.00 2866.40 2767.60 2853.20 2680.40
 2483.20 2474.00 2346.00 2249.20 2171.60 2198.40 2332.40 2474.00
 2641.20 2812.80 3016.40 3117.60 3102.40 3178.40 3137.20 3213.20
*Khi =  15.00
Rescaled, averaged background at 2 theta  37.500 :    1064.000
Rescaled, averaged background at 2 theta  38.730 :     832.000
 2056.00 1982.00 1992.40 1958.80 1908.00 1973.60 1975.20 1928.80
 1991.20 1996.80 2118.00 2150.40 2214.40 2279.60 2366.00 2552.80
 2683.60 2908.40 2913.20 2999.60 2859.60 2903.20 2929.60 3102.00
 3117.20 2953.60 2735.60 2405.20 2218.40 1991.60 1968.80 1866.80
 1941.60 1967.20 1973.60 2058.40 2122.00 2060.40 2093.20 2137.60
 2125.60 2152.80 2144.80 2051.60 2106.80 2113.60 1988.80 2029.20
 1932.40 1868.80 1900.80 1853.20 1842.80 2005.60 2242.00 2398.00
 2456.00 2672.40 2696.40 2605.20 2589.60 2559.60 2664.00 2908.00
 2865.60 2756.40 2646.00 2395.20 2308.40 2227.60 2108.00 2094.00
*Khi =  20.00
Rescaled, averaged background at 2 theta  37.500 :     932.800
Rescaled, averaged background at 2 theta  38.730 :     809.600
 1282.80 1235.60 1330.40 1351.60 1360.80 1388.80 1371.60 1350.80
 1352.00 1292.40 1225.20 1235.20 1189.20 1132.40 1188.40 1268.80
 1480.80 1863.20 2266.80 2654.80 2958.40 3278.00 3321.20 3216.80
 2960.40 2360.40 1894.40 1440.40 1207.60 1305.20 1392.80 1437.60
 1572.40 1758.00 1758.00 1928.40 1964.00 1973.60 2102.40 2102.40
 2062.80 2137.20 2070.40 2000.80 2042.40 1937.60 1930.80 1813.60
 1691.60 1548.80 1433.20 1213.60 1158.00 1142.40 1288.00 1578.00
 2020.40 2546.40 2847.20 2991.60 2971.60 2764.40 2514.80 2245.20
 1842.80 1539.20 1282.80 1145.20 1070.00 1155.60 1106.80 1222.00
*Khi =  25.00
Rescaled, averaged background at 2 theta  37.500 :     958.800
Rescaled, averaged background at 2 theta  38.730 :     841.200
 1362.40 1344.40 1491.20 1483.20 1495.20 1590.00 1544.40 1469.60
 1530.40 1422.40 1309.20 1284.40 1090.40  995.60  884.00  760.00
  848.80  995.20 1304.00 1765.20 2444.80 3205.60 3504.00 3178.80
 2404.40 1645.20 1196.80 1044.00 1021.20 1184.40 1445.60 1615.60
 1886.40 2077.60 2239.60 2433.60 2512.00 2464.00 2666.40 2620.80
 2581.60 2680.00 2556.40 2609.60 2621.20 2492.00 2386.00 2300.40
 2080.00 1850.80 1703.20 1358.00 1147.20 1015.20  948.80 1134.40
 1470.80 2098.80 2877.20 3332.80 3221.60 2558.40 1849.60 1308.00
  960.40  787.20  754.80  815.20  906.80 1041.60 1092.00 1250.00
*Khi =  30.00
Rescaled, averaged background at 2 theta  37.500 :    1228.800
Rescaled, averaged background at 2 theta  38.730 :     942.400
 2539.60 2665.60 2722.80 2814.80 2850.00 2994.00 2891.20 2836.00
 2752.00 2653.20 2518.80 2336.40 2022.80 1546.40 1217.60  932.80
  864.00  842.00  984.40 1285.20 1891.60 2920.80 3263.60 2857.20
 1981.20 1399.20 1009.60 1007.20 1128.40 1396.80 1835.60 2248.80
 2927.20 3285.60 3514.00 3570.40 3582.00 3628.40 3557.60 3625.60
 3592.80 3600.40 3634.40 3590.40 3648.00 3560.80 3656.40 3524.00
 3523.20 3217.60 2614.40 1972.80 1490.40 1205.60  969.20  950.40
 1223.60 1727.60 2678.40 3296.40 3034.80 2190.80 1446.00 1030.40
  854.80  820.80  896.40 1086.00 1504.80 1902.40 2153.20 2420.40
*Khi =  35.00
Rescaled, averaged background at 2 theta  37.500 :    1490.800
Rescaled, averaged background at 2 theta  38.730 :     989.600
 4006.00 3867.20 3832.00 3832.00 3908.40 3934.00 3886.40 3792.40
 3720.80 3786.40 3921.20 4262.80 4108.80 3172.00 2042.40 1343.60
 1024.00  870.40  942.40 1196.00 1715.20 2419.20 2922.80 2614.40
 1752.40 1179.20  913.20  967.60 1187.60 1656.00 2367.20 3450.80
 4558.00 4712.40 4141.60 3587.60 3231.20 3040.80 3022.00 2898.00
 2760.40 2841.20 2848.80 2933.20 3142.00 3317.20 3594.00 3972.00
 4828.40 5056.00 4132.00 2821.20 1950.40 1342.40  984.40  946.80
 1055.20 1560.40 2385.20 3091.20 2832.40 1973.20 1346.40 1010.00
  958.40 1103.60 1370.80 2121.20 3231.60 4152.00 4301.20 4093.20
*Khi =  40.00
Rescaled, averaged background at 2 theta  37.500 :    1376.800
Rescaled, averaged background at 2 theta  38.730 :     938.000
 2864.00 2574.40 2342.40 2125.60 2078.00 2089.60 2125.20 2235.60
 2436.40 2732.00 3379.20 4604.00 5966.80 4768.40 2829.20 1841.20
 1366.40 1096.40 1032.40 1072.40 1442.40 2218.00 2893.60 2596.80
 1623.20 1076.00  906.00 1088.80 1512.80 2095.60 3065.20 3999.60
 5285.60 5248.40 3939.20 2820.80 2357.60 2091.60 2062.00 2049.60
 1988.80 2090.80 2016.00 2064.40 2264.00 2345.20 2671.20 3483.60
 4950.40 5550.80 4707.20 3373.60 2410.40 1661.60 1124.40  967.20
 1006.40 1458.80 2414.80 3047.60 2699.20 1785.60 1246.40 1048.40
 1143.20 1370.40 1940.40 3073.60 5033.60 6091.20 4919.20 3494.00
*Khi =  45.00
Rescaled, averaged background at 2 theta  37.500 :    1132.000
Rescaled, averaged background at 2 theta  38.730 :     882.800
 1625.60 1417.60 1383.20 1284.80 1260.80 1352.40 1283.60 1303.60
 1450.80 1598.00 2392.80 4422.40 5796.40 4198.40 2758.80 2226.40
 2009.20 1634.80 1326.80 1144.80 1343.20 2234.00 3220.00 2748.40
 1558.00 1033.20 1092.80 1612.40 2177.60 2515.60 2619.20 2801.60
 3638.80 4479.20 3852.80 2785.20 2082.40 1932.80 1991.20 1984.00
 2002.40 1990.40 1978.40 1958.40 2025.20 2052.00 2363.20 3164.00
 4135.60 3969.60 3167.60 2741.20 2556.80 2224.80 1622.40 1110.80
 1030.80 1468.00 2775.60 3590.80 2754.40 1612.40 1154.80 1234.40
 1592.80 1947.60 2360.00 2942.80 4462.40 5830.80 4275.60 2354.80
*Khi =  50.00
Rescaled, averaged background at 2 theta  37.500 :    1146.800
Rescaled, averaged background at 2 theta  38.730 :     874.800
 1469.20 1311.60 1348.00 1302.80 1405.20 1478.80 1381.20 1390.40
 1446.00 1519.20 2400.80 4262.00 3968.80 2184.00 1600.80 1634.00
 1943.20 2097.20 1928.00 1414.80 1543.20 2563.60 3495.60 2926.80
 1925.20 1268.00 1553.60 2134.40 2090.40 1774.80 1611.60 1651.60
 2224.80 3203.60 3970.80 3147.20 2441.60 2237.20 2280.00 2277.60
 2346.00 2420.00 2335.60 2219.20 2308.80 2218.40 2608.40 3295.20
 3216.00 2427.60 1967.20 1695.60 1828.80 2132.00 2035.60 1574.00
 1235.20 1812.40 3313.60 3975.20 2970.00 1572.40 1227.20 1678.00
 2026.40 1949.20 1720.40 1537.20 2184.40 3801.60 3891.20 2222.00
*Khi =  55.00
Rescaled, averaged background at 2 theta  37.500 :    1348.000
Rescaled, averaged background at 2 theta  38.730 :     952.800
 1922.00 1856.40 1845.20 1905.20 1992.80 2024.80 1916.80 1879.20
 1929.20 2084.80 2666.00 3744.80 2652.40 1378.00 1031.20  920.80
 1122.00 1570.40 2169.20 2069.60 2396.80 2898.40 2588.80 2446.80
 2592.40 2240.40 2204.40 1982.00 1290.80 1135.20 1221.20 1360.80
 1888.40 2646.40 3529.60 3352.00 2974.00 2817.20 2835.60 2895.60
 2998.40 3081.20 2916.00 2778.80 2784.40 2722.40 2926.40 3186.00
 2782.00 2111.20 1764.40 1386.40 1322.80 1477.60 1893.20 2018.80
 2027.60 2643.20 3144.40 3064.40 2888.80 2240.00 1709.60 1851.20
 1515.20 1063.20  753.20  763.20 1177.60 2239.60 3160.80 2548.40
*Khi =  60.00
Rescaled, averaged background at 2 theta  37.500 :    1755.600
Rescaled, averaged background at 2 theta  38.730 :    1073.600
 2649.20 2646.80 2621.20 2554.80 2636.00 2638.80 2521.60 2525.60
 2624.80 2626.40 2966.40 3241.60 2570.00 1555.20 1108.00  856.00
  824.40  989.20 1973.20 3028.40 3280.40 2243.20 1419.20 1453.20
 2434.40 3101.60 2886.00 1756.00 1039.20 1039.20 1327.60 1611.60
 2170.00 3016.00 3532.00 3335.20 2964.80 2775.60 2752.40 2861.60
 2875.20 2951.20 2885.20 2800.00 2853.60 2918.40 3087.20 3448.40
 3210.80 2440.80 1909.20 1500.80 1318.80 1218.00 1616.00 2580.80
 2917.20 2704.80 1942.80 1540.40 2246.40 3008.80 2680.00 1718.80
  965.60  621.60  592.40  709.20 1105.60 1962.80 2815.20 2812.40
*Khi =  65.00
Rescaled, averaged background at 2 theta  37.500 :    1858.000
Rescaled, averaged background at 2 theta  38.730 :    1189.200
 2429.20 2262.80 2313.20 2194.00 2179.60 2275.20 2182.40 2246.80
 2416.40 2450.80 2822.80 3298.00 3210.00 2155.60 1447.20 1088.00
  937.20 1144.40 2118.00 3306.40 2520.40 1326.80  914.00  931.60
 1392.80 2352.80 2968.40 2067.20 1271.60 1250.00 1481.20 1778.80
 2657.60 3477.60 3287.60 2820.80 2432.00 2349.60 2454.40 2318.80
 2344.00 2432.00 2488.40 2410.80 2487.60 2476.80 2645.60 3255.20
 3756.80 3076.80 2308.80 1720.40 1524.00 1528.40 1846.00 2760.40
 2711.20 1739.60 1082.40  918.40 1328.00 2590.00 3251.20 1995.20
  922.40  646.40  699.20  967.60 1624.00 2708.80 3128.00 2806.40
*Khi =  70.00
Rescaled, averaged background at 2 theta  37.500 :    1674.800
Rescaled, averaged background at 2 theta  38.730 :    1228.400
 1914.40 1822.00 1834.80 1765.20 1772.80 1871.60 1818.00 1938.00
 2018.40 2063.20 2376.40 3090.80 3311.20 2490.40 1616.40 1240.00
 1239.60 1480.00 2247.20 2313.20 1622.00  964.80  777.60  713.20
  880.80 1435.20 1976.80 1979.20 1648.80 1416.80 1490.40 1756.00
 2622.80 3266.00 3031.60 2685.20 2493.20 2353.20 2334.80 2259.60
 2152.40 2270.40 2288.80 2399.20 2436.80 2442.40 2679.20 3209.60
 3768.00 3202.40 2424.00 1885.20 1776.00 1921.20 2175.60 2343.20
 2010.80 1207.20  882.80  782.00  966.80 1626.00 2471.20 2031.60
 1169.20  745.60  788.80 1082.40 2001.20 3212.80 3030.80 2276.40
